Fp1 Fpz Fp2 F3 Fz F4 C3 Cz C4 P3 Pz P4 O1 Oz O2
-10,530 -15,521 -22,716 -8,856 -18,511 -17,673 -13,687 -15,826 -8,232 -13,431 -13,150 -11,003 -11,784 -9,471 -13,936
-7,643 -12,621 -14,134 -7,493 -10,113 -22,305 -10,307 -13,418 -3,601 -10,292 -7,786 -6,288 -9,011 -5,788 -8,820
-11,040 -15,691 -11,274 -12,943 -16,626 -25,737 -10,476 -13,934 -4,973 -9,245 -5,883 -4,716 -6,758 -3,332 -6,880
-7,813 -8,357 -3,534 -10,218 -13,027 -16,986 -11,321 -13,074 -6,174 -10,292 -5,537 -4,541 -6,412 -2,982 -6,880
-11,210 -11,086 -1,851 -16,008 -11,484 -16,300 -14,869 -17,891 -12,691 -14,303 -8,479 -8,383 -8,664 -4,385 -8,291
-11,889 -9,039 -9,255 -15,497 -19,197 -11,324 -16,897 -18,235 -16,292 -14,129 -11,074 -9,606 -8,145 -3,157 -7,938
-12,569 -7,334 -6,899 -11,069 -8,741 -7,035 -14,193 -17,374 -14,063 -13,257 -10,382 -9,781 -6,065 -0,351 -4,234
-17,494 -14,838 -15,144 -11,580 -16,626 -11,153 -16,052 -20,127 -15,949 -13,955 -12,804 -11,178 -4,332 1,929 -0,706
-9,681 -8,698 -13,461 -3,576 -13,198 -7,721 -14,024 -17,374 -15,263 -10,989 -12,977 -11,178 -0,693 3,859 1,940
-10,191 -12,280 -8,750 -10,729 -10,970 -12,182 -13,349 -20,127 -15,092 -12,734 -14,016 -15,370 -2,079 0,175 -0,529
-9,002 -13,815 -16,154 -16,860 -23,311 -17,501 -18,756 -23,051 -22,123 -17,443 -20,072 -21,133 -7,798 -6,139 -7,056
-6,964 -12,962 -16,154 -15,838 -15,083 -14,927 -18,080 -22,879 -23,666 -19,711 -22,148 -23,054 -12,303 -10,173 -10,232
-8,322 -16,373 -20,697 -14,305 -19,197 -12,868 -16,390 -21,159 -21,608 -17,792 -21,629 -20,609 -12,650 -10,874 -11,114
-0,170 -6,140 -12,620 -1,873 -10,113 -4,976 -9,124 -13,762 -15,778 -10,815 -15,746 -13,972 -9,358 -8,244 -8,644
-1,189 -5,628 -5,385 -1,022 -2,914 -10,123 -2,366 -9,805 -13,034 -4,884 -8,998 -9,431 -5,545 -4,736 -5,116
3,737 1,876 -4,207 2,725 -5,828 -11,496 1,690 -3,268 -10,290 0,698 -3,980 -4,017 -1,040 -0,351 -1,058
9,851 9,551 8,750 4,598 8,399 -10,638 6,590 1,548 -3,773 2,616 1,384 -0,524 0,173 1,052 2,117
5,775 4,776 5,216 -1,022 0,514 -14,927 3,379 0,172 -4,973 0,174 0,692 -0,699 -1,733 -0,526 0,882
10,021 10,233 5,721 5,790 2,914 -8,064 3,379 1,548 -5,488 -0,349 1,211 0,000 -3,119 -1,579 0,000
5,265 3,241 4,880 3,065 2,742 -13,040 0,169 -3,957 -7,374 -5,407 -1,211 -3,668 -6,932 -5,613 -2,470
4,416 0,512 -2,861 2,044 -9,941 -15,270 -8,111 -8,429 -11,490 -10,292 -6,748 -6,288 -10,744 -9,471 -5,998
7,473 3,411 2,692 3,065 -1,028 -8,407 -8,955 -8,945 -10,461 -11,861 -8,306 -7,510 -12,997 -12,278 -8,468
1,019 -1,535 -0,337 -4,768 -7,542 -3,260 -10,138 -9,461 -11,833 -12,908 -10,036 -8,558 -15,423 -14,558 -11,819
1,868 4,605 1,514 -0,851 -1,200 6,863 -5,576 -3,440 -7,203 -8,896 -7,094 -4,192 -13,690 -11,751 -10,761
-4,586 -2,047 -1,010 -1,362 4,114 5,491 -2,028 -1,720 -1,372 -6,280 -2,422 0,873 -10,571 -7,016 -5,469
-4,586 -4,605 -11,779 1,362 -3,085 8,236 -2,704 1,720 1,372 -1,744 1,730 7,859 -5,372 -1,052 0,529
-1,868 -4,264 -8,750 2,214 6,170 8,064 0,169 3,613 6,002 1,919 7,440 12,400 -0,866 3,508 5,469
-6,964 -10,574 -16,658 -0,851 -3,428 -2,231 -1,690 1,892 6,345 3,489 8,652 12,750 3,119 7,191 7,585
-1,868 -2,729 -14,303 8,515 0,514 -1,887 0,676 4,645 8,060 6,977 10,382 12,575 7,278 10,348 10,055
-2,208 -2,729 -5,553 7,323 5,142 -4,461 3,886 3,613 8,060 7,501 10,036 8,733 8,145 9,296 8,820
3,567 2,388 -1,178 7,663 -1,543 -2,402 5,576 4,645 4,116 9,419 7,440 4,890 8,838 7,717 4,057
11,380 8,357 9,928 10,729 10,798 1,373 12,166 7,913 6,345 12,385 9,171 4,192 9,184 7,717 3,705
9,002 1,535 3,029 3,917 2,400 -4,804 12,166 5,333 1,200 10,640 6,575 1,048 5,199 4,385 1,235
12,229 3,923 -1,514 8,345 5,999 -0,858 14,362 9,805 -2,572 12,908 7,094 2,620 4,332 3,508 -0,706
-1,359 -9,551 -10,433 6,471 11,655 -2,917 20,107 14,278 0,857 17,792 13,323 7,859 7,625 7,367 3,352
-12,569 -15,862 -22,548 4,939 1,714 -3,775 19,431 14,966 -0,171 18,490 15,400 9,606 8,491 9,647 7,409
-8,662 -7,334 -8,245 7,323 10,113 1,887 18,249 12,902 -0,343 15,524 14,362 7,335 6,065 7,016 6,351
-3,567 -2,729 0,841 5,960 3,942 1,544 14,193 9,461 -2,401 13,082 11,074 4,541 5,025 4,911 1,940
13,588 14,838 14,639 13,965 11,141 14,241 14,869 12,902 2,401 14,303 11,593 6,986 6,412 5,437 0,882
22,080 21,490 26,250 14,816 20,740 26,080 17,235 15,654 11,147 15,699 14,016 9,781 7,278 5,437 0,353
25,477 24,389 24,062 17,881 16,969 29,511 16,897 19,267 15,606 17,094 15,054 11,178 7,278 4,911 -2,117
21,740 22,684 26,418 21,287 28,110 25,222 19,938 23,223 19,722 17,967 18,341 12,575 8,318 6,665 -0,706
9,851 11,768 16,995 15,838 20,911 17,844 17,235 23,395 19,208 16,746 19,553 14,671 9,531 9,121 3,528
15,456 20,467 21,202 19,414 25,196 27,453 14,700 26,320 23,152 15,699 20,591 17,815 10,224 10,348 7,056
18,513 24,048 30,961 14,986 29,824 31,914 10,645 22,191 27,096 11,164 18,514 14,846 8,318 7,717 5,821
19,193 26,777 26,754 10,559 20,225 37,576 3,210 17,547 22,980 7,152 12,804 10,654 5,199 4,209 1,588
16,135 26,095 27,764 4,428 27,939 40,836 3,041 16,514 22,123 8,024 12,631 10,829 5,025 4,385 1,235
1,019 9,551 14,976 -6,642 16,283 33,801 2,028 13,934 19,894 8,722 12,977 11,527 5,545 5,613 3,528
-5,945 2,899 8,750 -6,301 14,398 31,227 1,183 12,214 17,321 6,803 11,766 10,305 3,639 4,560 4,057
-11,889 -5,628 7,067 -13,283 11,484 18,702 -2,704 5,333 13,720 0,523 6,575 6,462 -0,347 1,403 1,235
-6,794 -2,899 4,711 -12,432 -0,514 13,898 -6,928 2,752 11,662 -2,616 1,211 5,764 -2,599 -0,351 -0,706
-2,718 1,194 12,957 -7,663 7,370 13,898 -5,576 2,580 14,749 -4,186 0,519 7,335 -4,679 -2,280 -0,176
-10,700 -6,993 5,553 -13,283 -3,771 5,319 -9,124 -2,236 12,348 -7,152 -2,769 4,716 -8,491 -5,788 -1,764
-13,588 -5,969 0,505 -14,816 -5,485 4,118 -11,997 -5,333 7,031 -8,896 -6,229 -0,349 -12,130 -9,822 -5,116
-21,740 -13,303 -1,514 -21,628 -5,656 2,231 -14,193 -10,666 0,514 -10,815 -9,344 -6,288 -13,517 -12,102 -9,173
-21,910 -13,474 -7,572 -17,881 -14,226 6,005 -14,869 -7,913 -3,944 -6,105 -8,998 -4,541 -7,105 -7,367 -9,702
-5,775 2,558 8,077 -0,681 7,713 22,992 0,338 9,117 11,490 11,164 7,613 12,750 11,957 9,997 3,528
-7,134 0,171 7,572 -4,939 8,570 18,702 5,407 11,010 20,237 13,606 15,746 16,417 16,636 14,032 10,408
-6,454 0,341 2,524 -9,366 6,856 13,040 0,000 7,569 16,464 7,675 10,728 10,305 11,090 8,770 5,469
-17,154 -12,621 -2,861 -22,139 0,857 1,373 -7,604 -0,516 9,947 -0,698 3,980 2,096 3,466 2,280 -0,882
-24,628 -19,955 -14,976 -31,165 -16,797 -2,574 -18,587 -8,257 -0,686 -9,070 -4,845 -6,812 -3,119 -3,683 -7,938
-26,156 -21,149 -12,283 -35,763 -14,055 -2,574 -25,852 -15,482 -8,232 -16,746 -12,285 -16,068 -8,318 -9,121 -14,818
-27,345 -25,072 -14,639 -40,361 -24,682 -3,603 -31,090 -20,299 -14,577 -18,490 -17,130 -19,911 -5,719 -7,717 -17,464
-17,324 -13,986 -7,740 -30,484 -19,711 4,633 -25,514 -14,450 -11,490 -10,815 -12,458 -14,671 4,159 0,877 -10,937
-18,683 -15,179 -2,187 -29,632 -13,369 2,574 -18,756 -11,526 -7,031 -6,454 -5,883 -9,606 7,971 4,911 -4,234
-21,231 -16,203 -3,702 -29,292 -19,883 2,917 -20,614 -10,838 -7,717 -8,198 -5,883 -8,733 3,639 1,929 -3,705
-26,836 -21,149 1,851 -30,654 -12,341 4,804 -23,656 -13,074 -6,860 -13,431 -8,652 -12,400 -3,812 -4,911 -8,468
-33,120 -30,359 -8,077 -35,933 -21,939 0,858 -29,232 -16,514 -9,261 -18,315 -14,189 -15,719 -10,571 -11,927 -16,406
-14,437 -13,815 -1,514 -24,523 -12,855 10,123 -26,190 -10,494 -3,944 -15,699 -12,458 -11,003 -11,610 -12,804 -17,817
-0,340 -1,023 16,995 -18,392 -0,686 12,010 -20,614 -8,257 1,372 -13,257 -8,479 -7,335 -11,784 -13,330 -17,111
18,174 21,149 34,831 -10,218 -2,228 16,986 -18,080 -7,569 0,514 -10,466 -8,306 -5,589 -11,264 -13,856 -17,817
46,368 53,384 71,008 1,533 14,741 30,884 -11,828 -7,397 3,430 -7,152 -7,267 -5,414 -7,971 -12,453 -17,288
77,620 84,937 107,522 15,327 21,768 50,101 -5,238 -4,645 4,802 -0,349 -4,326 -2,271 1,733 -3,508 -10,408
110,060 119,048 147,233 31,165 38,223 69,318 -1,859 -3,957 7,546 -2,268 -2,595 -1,747 3,466 -0,702 -4,587
129,593 135,591 176,007 33,038 47,136 72,921 -8,279 -11,010 8,403 -11,861 -7,959 -5,065 -0,520 -2,105 -3,175
143,010 145,484 187,280 29,632 37,708 66,229 -21,797 -25,116 -0,857 -27,211 -20,245 -16,243 -12,477 -11,927 -8,291
147,087 149,236 194,684 22,650 34,795 50,616 -38,694 -41,974 -17,150 -44,655 -39,451 -34,058 -30,499 -29,642 -26,285
155,919 159,810 203,602 30,824 33,423 56,278 -38,018 -35,437 -16,635 -35,235 -39,451 -28,294 -21,834 -22,100 -27,167
174,942 182,835 224,972 58,583 61,362 87,505 -12,842 -9,461 6,174 -6,977 -15,573 -4,716 5,025 2,631 -4,587
169,676 178,913 225,982 66,247 79,530 96,942 8,111 4,989 23,666 11,687 4,845 10,829 24,607 20,872 16,229
159,146 169,873 206,799 67,779 73,360 99,859 17,235 13,074 29,154 21,106 15,400 20,609 33,791 30,519 28,401
141,482 152,476 191,151 57,221 72,846 92,309 16,897 8,773 29,840 15,176 17,303 20,260 27,033 26,660 30,342
107,852 117,172 157,666 26,737 40,108 62,798 -3,379 -12,558 12,519 -7,152 0,519 3,318 4,332 7,191 15,700
82,885 93,976 126,536 6,301 15,255 41,350 -25,514 -29,932 -7,203 -27,037 -20,764 -14,671 -17,849 -13,681 -5,116
59,786 71,804 103,484 -7,153 4,114 26,938 -34,639 -36,125 -18,522 -31,223 -29,935 -21,832 -21,141 -17,189 -13,760
51,463 62,935 85,648 -4,939 -2,914 24,879 -29,063 -25,632 -17,321 -17,967 -22,494 -14,671 -5,199 -2,456 -3,175
43,311 54,578 80,431 -1,703 9,770 24,193 -15,883 -13,934 -7,889 -5,407 -8,652 -5,938 9,184 9,647 9,702
22,420 32,917 63,436 -12,091 -0,857 13,212 -15,883 -14,794 -7,203 -5,407 -6,056 -5,938 9,704 9,296 11,290
15,116 24,901 54,182 -16,860 -7,199 3,946 -22,135 -17,547 -12,176 -10,640 -11,593 -10,654 2,773 1,929 3,175
10,361 15,009 48,292 -22,820 -9,770 -1,029 -23,994 -16,858 -10,461 -10,815 -13,670 -11,702 2,773 0,175 -2,823
12,738 14,668 36,346 -18,733 -15,769 3,775 -19,431 -9,117 -4,287 -5,233 -9,690 -8,034 7,278 3,508 -2,293
11,210 12,962 30,288 -13,794 -3,942 3,946 -11,490 -3,957 -2,744 -1,047 -4,326 -6,462 9,531 6,314 1,235
1,019 1,706 14,976 -16,519 -9,941 -5,319 -8,617 -3,785 -7,031 0,872 -2,942 -7,510 9,877 7,893 3,352
-1,868 0,853 8,750 -14,305 -8,227 -7,549 -6,252 -3,268 -7,717 1,395 -2,076 -9,082 7,625 6,490 2,999
-12,229 -9,551 4,207 -22,650 -11,313 -15,785 -8,786 -9,461 -14,063 -3,489 -5,364 -15,020 1,040 1,403 -1,411
-18,174 -14,838 -5,553 -24,864 -22,968 -16,643 -12,842 -11,354 -21,437 -6,454 -9,517 -17,465 -3,292 -1,228 -3,881
-22,420 -19,102 -7,067 -23,161 -15,598 -13,555 -12,166 -9,461 -20,065 -6,803 -9,690 -16,417 -3,639 -1,052 -3,881
-26,156 -25,072 -13,125 -23,501 -19,711 -9,265 -9,969 -5,161 -17,836 -3,140 -6,056 -12,924 2,426 4,034 0,176
-21,910 -18,932 -10,769 -17,200 -13,027 -2,402 -5,407 0,172 -16,292 0,000 -1,903 -9,781 7,105 7,542 4,234
-27,855 -25,072 -12,452 -22,650 -10,970 -10,809 -4,731 -0,516 -15,778 0,000 -0,692 -7,685 7,625 7,016 4,234
-29,044 -25,413 -20,360 -22,309 -17,826 -10,123 -5,069 2,580 -10,461 2,442 0,865 -2,271 9,704 8,244 5,116
-32,271 -27,971 -19,351 -23,672 -9,941 -9,780 -4,562 1,720 -4,459 0,523 1,384 -2,969 9,531 7,893 5,998
-44,670 -42,809 -31,466 -34,230 -23,653 -20,933 -12,166 -6,709 -9,261 -6,628 -5,191 -9,082 6,238 4,385 3,175
-49,425 -45,538 -38,028 -35,422 -27,596 -22,992 -17,573 -10,321 -13,205 -11,513 -11,074 -12,226 2,773 1,228 -0,176
-57,238 -53,725 -43,076 -40,020 -27,939 -30,198 -18,925 -14,106 -15,435 -12,908 -13,323 -14,322 1,560 0,702 -1,058
-52,822 -50,484 -48,292 -34,060 -33,252 -28,997 -15,883 -10,321 -16,464 -5,582 -10,036 -9,257 8,491 8,594 4,763
-43,481 -42,639 -37,692 -24,523 -16,969 -22,477 -5,576 -3,096 -8,403 3,314 -0,346 -1,747 17,156 17,364 14,995
-51,463 -51,678 -43,413 -29,292 -22,454 -27,967 -3,548 -2,408 -7,546 4,361 3,115 0,000 17,329 17,715 17,993
-57,068 -54,407 -53,004 -28,440 -20,911 -20,075 -4,393 2,408 -4,973 4,361 3,807 1,747 14,730 16,136 16,229
-71,166 -65,834 -59,061 -31,335 -14,912 -21,619 -1,521 7,913 4,287 6,105 8,306 4,366 14,730 16,487 16,935
-80,677 -70,951 -68,821 -32,357 -23,139 -31,056 -3,379 9,805 5,145 4,186 7,094 3,493 10,571 12,278 12,878
-69,127 -56,965 -53,340 -27,418 -11,827 -28,139 -2,704 11,698 7,889 3,314 6,229 4,366 7,625 9,121 9,173
-52,652 -44,515 -38,196 -25,545 -11,484 -19,388 -2,535 12,902 10,633 5,756 7,613 8,907 9,531 10,524 9,702
-32,271 -26,607 -20,528 -17,881 -3,428 -7,893 -0,338 14,622 11,147 7,501 9,690 8,733 11,437 11,401 11,114
-30,063 -27,459 -9,255 -22,139 -2,228 -7,035 -1,014 8,257 4,287 3,489 6,402 0,873 6,758 6,490 7,233
-36,687 -33,941 -16,658 -28,270 -16,797 -1,887 -7,097 3,785 -5,145 -2,442 -1,211 -3,668 -0,866 -0,702 -1,764
-44,670 -37,693 -19,014 -26,737 -5,656 8,064 -1,859 10,321 2,401 1,570 3,461 1,572 2,079 2,631 -0,706
-54,011 -45,197 -34,999 -26,056 -8,056 4,804 3,717 15,998 9,432 8,198 10,209 6,462 8,838 9,471 5,645
-42,462 -32,406 -32,980 -17,200 0,000 6,863 8,786 21,331 12,005 13,257 15,400 11,003 13,690 14,909 11,466
-32,271 -25,924 -19,687 -19,414 7,370 7,035 9,462 20,299 13,377 14,478 18,168 15,544 15,769 17,890 17,111
-20,891 -17,397 -14,807 -17,711 1,714 12,868 5,576 18,751 12,005 14,652 17,649 16,941 16,636 18,416 18,523
-16,815 -13,986 -7,740 -16,008 10,456 13,383 5,914 16,858 14,406 14,129 18,341 15,370 15,249 16,838 17,817
-31,082 -28,824 -21,033 -23,501 -2,914 -2,402 2,197 11,010 11,147 10,815 13,843 10,305 9,531 9,997 9,879
-38,046 -31,723 -30,961 -17,200 -2,914 -7,206 3,041 12,214 12,005 11,338 12,285 10,654 6,065 6,139 4,057
-46,708 -39,057 -38,028 -13,965 2,228 -9,265 6,421 11,870 14,234 12,036 13,496 11,353 6,585 7,893 5,821
-41,782 -35,305 -42,403 -9,537 -2,400 -3,260 5,576 12,902 13,548 13,606 13,670 12,924 9,877 10,699 9,350
-32,271 -28,312 -28,100 -10,388 8,056 1,887 6,083 11,870 14,063 12,559 14,535 12,924 8,491 8,770 9,879
-34,649 -33,429 -25,576 -22,139 -4,456 -3,603 -0,338 4,817 5,145 6,803 9,690 9,955 1,213 3,859 6,880
-32,780 -29,506 -21,875 -24,523 -7,027 -2,059 -4,731 2,580 2,058 3,314 7,267 10,829 -2,253 2,982 8,820
-40,763 -35,987 -21,875 -31,505 -9,770 -9,780 -8,448 -2,752 0,343 -0,872 4,499 8,558 -4,506 0,877 7,938
-43,481 -36,499 -27,259 -29,292 -20,054 -8,579 -11,828 -3,785 -0,514 -2,268 1,038 6,462 -4,852 -0,175 3,881
-43,141 -34,964 -24,399 -25,545 -12,512 -7,893 -11,659 -5,161 2,229 -3,663 0,346 4,366 -3,639 1,052 3,705
-46,538 -41,786 -33,990 -32,016 -23,653 -14,927 -17,066 -12,730 -4,116 -7,675 -4,499 -2,969 -2,599 1,052 1,940
-39,744 -36,158 -36,177 -32,016 -24,510 -12,697 -20,276 -15,310 -9,947 -9,245 -9,171 -8,558 -1,213 0,351 -1,235
-38,555 -36,669 -31,129 -37,807 -22,282 -14,413 -20,107 -17,547 -9,947 -9,594 -9,863 -8,907 -0,866 0,000 -1,940
-37,536 -35,476 -33,317 -41,213 -32,395 -16,643 -23,825 -20,471 -12,005 -13,257 -12,804 -10,479 -7,278 -5,437 -4,410
-40,423 -37,181 -32,644 -45,640 -29,481 -21,104 -29,232 -26,492 -15,949 -21,281 -19,207 -16,243 -18,022 -15,084 -13,054
-46,028 -41,615 -37,187 -48,365 -38,394 -25,050 -32,949 -28,212 -19,036 -22,676 -22,148 -15,544 -19,755 -16,838 -16,229
-39,744 -30,188 -29,783 -36,785 -28,796 -11,324 -27,035 -19,783 -12,005 -16,048 -17,130 -10,130 -15,423 -15,084 -17,111
-39,574 -29,847 -22,884 -36,104 -20,225 -8,579 -21,459 -17,891 -7,374 -14,652 -13,496 -10,829 -16,289 -18,241 -22,051
-32,101 -25,072 -25,745 -32,868 -26,739 -6,177 -21,121 -16,858 -10,804 -14,652 -15,054 -11,527 -18,195 -20,521 -26,990
-18,853 -15,350 -15,817 -22,309 -12,341 0,515 -14,024 -10,321 -3,430 -9,594 -9,863 -4,366 -14,210 -15,610 -21,874
-14,777 -15,009 -13,798 -16,178 -12,341 0,343 -7,266 -4,817 5,659 -2,616 -3,980 2,620 -6,412 -7,542 -13,583
-7,303 -7,504 -12,115 -4,087 -2,742 5,491 1,690 3,957 20,065 5,582 3,980 10,829 3,292 1,754 -4,057
-17,324 -17,397 -16,827 -10,899 -1,714 -6,177 0,507 -1,892 17,321 1,221 3,461 5,240 2,946 1,052 -2,117
-27,685 -24,901 -29,615 -18,733 -18,169 -14,069 -10,645 -9,977 0,514 -5,407 -5,018 -2,620 -0,347 -2,280 -5,645
-30,402 -25,242 -24,567 -22,480 -14,226 -13,383 -14,700 -12,730 -4,287 -7,501 -7,440 -2,445 -1,040 -2,280 -4,234
-31,082 -28,312 -23,557 -26,907 -22,454 -12,697 -18,756 -16,170 -9,947 -9,768 -10,209 -4,192 -2,426 -2,631 -2,646
-19,702 -17,397 -12,788 -18,392 -15,598 -0,858 -16,390 -13,246 -8,746 -9,245 -9,344 -2,271 -3,119 -2,280 0,000
-21,910 -21,831 -8,245 -21,798 -12,684 -4,804 -16,221 -16,686 -9,775 -13,257 -11,247 -7,510 -7,278 -6,665 -1,588
-26,666 -25,583 -18,678 -24,353 -23,311 -12,525 -19,431 -19,095 -12,691 -17,967 -17,822 -16,243 -12,477 -13,330 -9,350
-30,233 -24,901 -19,855 -25,375 -16,626 -18,874 -20,276 -22,191 -15,092 -22,676 -22,667 -24,452 -17,675 -19,644 -17,288
-37,196 -30,359 -27,427 -32,187 -25,882 -21,962 -26,528 -28,040 -22,466 -27,560 -28,723 -28,993 -22,008 -24,380 -24,168
-30,912 -22,684 -24,230 -28,610 -22,111 -10,295 -28,387 -27,180 -19,894 -26,863 -29,761 -26,547 -21,314 -24,555 -25,932
-28,534 -23,366 -19,351 -31,335 -17,140 -6,348 -28,049 -27,696 -16,121 -25,467 -27,858 -22,181 -19,928 -23,152 -24,521
-28,704 -23,878 -24,567 -31,335 -23,825 -1,544 -28,556 -25,460 -12,176 -23,723 -25,782 -16,592 -18,542 -21,223 -23,109
-34,818 -27,118 -25,072 -33,719 -17,997 -1,887 -26,866 -24,600 -7,031 -23,374 -22,321 -13,798 -16,982 -18,943 -20,110
-46,368 -39,739 -36,682 -45,470 -31,709 -13,555 -31,090 -29,760 -12,691 -27,735 -24,398 -18,513 -20,275 -20,521 -20,640
-43,311 -38,034 -38,870 -46,322 -34,452 -18,702 -34,977 -30,792 -18,007 -31,398 -27,512 -21,657 -24,954 -23,503 -23,109
-42,631 -41,615 -37,019 -47,173 -33,595 -29,683 -36,666 -31,653 -20,580 -32,444 -28,204 -23,054 -25,127 -23,327 -23,815
-36,687 -37,181 -38,196 -41,042 -38,737 -28,654 -36,497 -27,696 -19,894 -28,607 -26,301 -19,911 -19,582 -18,592 -21,345
-30,912 -31,212 -30,793 -36,614 -25,710 -24,536 -31,090 -23,051 -14,406 -23,723 -20,937 -14,671 -14,210 -13,330 -16,406
-32,610 -33,258 -33,317 -38,658 -28,624 -23,163 -28,049 -20,643 -10,633 -19,013 -15,573 -9,606 -8,838 -7,717 -10,408
-32,441 -29,336 -33,317 -34,230 -24,510 -14,927 -27,035 -20,299 -12,348 -18,839 -13,496 -9,257 -9,704 -8,068 -8,644
-40,423 -34,793 -34,326 -35,422 -22,282 -17,673 -27,373 -22,707 -14,234 -19,885 -14,708 -9,431 -11,784 -10,699 -11,996
-37,366 -30,359 -34,999 -28,951 -26,567 -12,354 -23,149 -17,547 -8,746 -13,780 -11,766 -4,716 -7,971 -7,893 -11,290
-29,044 -23,196 -24,062 -23,842 -13,198 -2,574 -14,024 -11,010 0,686 -7,326 -5,191 -1,572 -3,119 -5,086 -8,468
-27,175 -23,025 -21,370 -24,353 -17,312 -1,544 -10,645 -9,289 -0,857 -4,710 -2,942 -1,747 -1,560 -4,209 -7,056
-16,135 -10,574 -9,928 -14,305 -10,798 4,461 -6,252 -3,096 0,343 -0,872 -0,346 2,096 0,000 -1,228 -4,234
-12,399 -8,698 0,337 -13,965 -2,742 3,946 -1,014 -0,688 6,345 1,395 4,672 5,414 1,733 2,280 2,293
-10,700 -7,504 -4,711 -14,475 -10,798 0,515 -2,872 -2,236 1,543 1,047 3,807 3,144 2,426 4,209 4,410
-9,002 -4,605 -1,683 -10,218 -1,714 -0,858 -3,548 -2,924 -2,744 0,000 2,942 0,349 2,773 4,209 3,881
-12,908 -8,869 -6,394 -9,026 -5,485 -5,147 -5,576 -2,064 -2,401 -0,349 2,249 1,223 3,986 4,034 1,411
-6,964 -2,217 -6,226 -1,192 1,714 0,858 -3,548 4,301 4,973 2,093 4,845 4,890 5,199 3,859 0,000
-8,662 -5,628 -6,899 -4,257 7,713 3,946 -1,014 6,537 10,633 4,186 8,133 8,383 5,199 4,736 0,529
-8,153 -5,458 -11,779 -4,428 1,371 13,726 -0,169 8,945 9,261 5,407 9,517 10,305 3,986 5,788 3,705
-7,983 -5,117 -6,226 -2,725 10,113 17,673 1,352 7,053 8,060 1,047 6,921 5,240 -4,332 -1,052 0,176
-18,683 -15,350 -13,293 -10,388 0,000 5,834 -4,055 -1,204 6,002 -6,803 -1,384 -1,747 -11,610 -8,068 -8,115
-21,401 -14,497 -18,678 -9,707 -1,200 1,544 -9,462 -6,193 2,058 -10,989 -7,440 -4,890 -13,343 -10,348 -11,996
-25,477 -20,126 -22,211 -14,135 -0,686 -5,662 -13,855 -12,730 1,886 -15,176 -10,901 -6,113 -14,730 -12,628 -13,936
-22,759 -19,443 -28,437 -12,602 -10,627 -9,437 -17,911 -15,654 -0,343 -17,443 -15,746 -7,859 -16,462 -14,733 -16,582
-20,551 -17,397 -24,062 -8,515 -2,057 -11,839 -14,024 -14,106 0,343 -15,699 -15,227 -7,859 -15,423 -15,435 -17,993
-30,233 -28,142 -33,317 -13,283 -11,141 -21,790 -14,362 -14,966 -2,229 -13,955 -14,535 -9,955 -12,997 -14,909 -19,228
-32,441 -25,924 -32,812 -12,091 -10,970 -17,158 -13,011 -11,526 -6,517 -9,768 -12,112 -10,654 -7,625 -10,699 -16,759
-38,215 -28,483 -25,745 -20,947 -8,399 -15,099 -11,490 -11,354 -9,089 -8,373 -8,825 -10,305 -4,852 -6,840 -11,466
-35,838 -26,266 -25,240 -26,056 -17,312 -16,986 -16,559 -13,246 -10,804 -9,943 -9,171 -9,606 -6,065 -5,262 -7,409
-28,534 -21,661 -19,182 -27,759 -11,998 -18,874 -20,614 -17,547 -11,319 -13,955 -11,074 -10,829 -9,531 -7,191 -6,880
-25,137 -24,389 -23,389 -33,038 -21,939 -24,536 -25,852 -24,083 -19,036 -18,839 -16,438 -13,798 -12,997 -9,997 -9,173
-16,645 -17,908 -22,043 -30,143 -20,054 -20,589 -25,852 -23,739 -19,208 -18,490 -17,649 -12,750 -11,610 -8,594 -8,115
-23,778 -26,266 -25,240 -37,466 -19,883 -26,423 -24,669 -25,976 -16,635 -16,920 -15,919 -12,051 -7,278 -5,262 -5,469
-29,893 -30,529 -35,336 -36,955 -30,167 -26,423 -23,656 -23,051 -17,150 -11,513 -12,977 -9,257 0,866 1,228 -0,706
-28,534 -27,971 -28,269 -28,440 -18,683 -14,927 -15,883 -17,547 -13,891 -5,407 -6,229 -5,589 6,585 7,016 6,703
-29,723 -32,235 -28,269 -28,099 -21,939 -9,780 -13,687 -15,998 -10,976 -5,059 -4,153 -4,192 4,159 6,490 10,232
-22,080 -26,095 -29,447 -19,074 -16,626 -10,295 -13,011 -11,182 -7,031 -5,582 -4,672 -2,445 -1,386 2,631 7,762
-26,666 -28,483 -34,158 -12,091 -8,741 -21,276 -8,111 -8,257 -1,372 -6,105 -3,980 -1,572 -6,758 -2,105 3,881
-31,931 -27,459 -44,591 -6,471 -12,341 -19,732 -8,111 -6,709 -0,514 -7,326 -5,883 -1,572 -9,358 -4,911 -1,588
-30,063 -23,196 -37,692 -6,982 -0,686 -7,035 -8,786 -5,505 2,744 -7,849 -4,499 0,873 -10,224 -5,086 -1,588
-29,044 -24,560 -31,971 -15,838 -7,027 -10,809 -11,490 -7,741 2,058 -7,849 -4,153 0,175 -10,571 -5,613 -1,588
-19,702 -15,691 -16,827 -14,816 -5,485 -6,692 -10,983 -7,741 -1,886 -7,326 -5,191 -4,017 -11,957 -8,068 -4,587
-17,154 -16,714 -2,356 -14,646 -2,571 -1,373 -8,617 -9,633 -5,316 -8,198 -7,440 -9,955 -13,690 -10,874 -8,820
-13,758 -16,714 -5,889 -11,410 -11,655 3,603 -10,138 -10,321 -11,319 -8,024 -11,247 -12,575 -12,997 -11,576 -13,054
-10,361 -12,792 -6,731 -4,598 -0,686 5,147 -5,238 -4,989 -6,002 -2,791 -6,921 -5,938 -6,932 -7,367 -10,584
-14,097 -14,838 -14,639 -2,384 -1,714 1,201 1,014 -0,344 2,572 2,442 -2,076 -0,873 -2,599 -4,034 -8,468
-7,983 -5,628 -18,509 6,131 8,913 19,388 7,604 6,365 10,118 6,280 1,211 2,096 -1,733 -3,157 -7,233
-5,775 -7,846 -24,399 3,065 16,626 22,992 8,279 4,645 17,150 2,965 0,000 -0,873 -6,065 -7,893 -10,232
-3,906 -7,675 -26,250 -0,170 8,913 15,957 3,379 1,032 9,261 -1,744 -5,883 -6,113 -11,090 -13,155 -16,229
-7,473 -6,822 -11,947 -5,109 14,226 8,236 -0,507 -3,268 1,715 -7,849 -9,863 -10,654 -16,289 -17,539 -20,287
-16,475 -12,962 -8,582 -17,030 1,885 0,686 -9,462 -9,633 -5,659 -14,129 -14,881 -13,623 -18,715 -18,592 -22,227
-12,738 -7,163 -1,683 -12,091 1,028 7,035 -13,855 -8,945 -8,918 -14,478 -14,881 -10,305 -15,423 -14,382 -18,170
-11,210 -7,504 6,899 -8,515 4,114 8,922 -12,842 -7,053 -8,060 -12,559 -10,728 -6,288 -11,610 -9,997 -12,348
-6,624 -4,605 6,731 -4,939 -2,742 9,952 -12,504 -3,440 -7,203 -10,815 -8,998 -5,589 -10,571 -9,296 -11,290
-4,926 -3,582 6,562 -1,703 7,713 14,413 -8,617 -0,172 -1,200 -9,419 -6,575 -5,414 -9,704 -9,121 -11,114
-15,796 -14,156 -11,610 -5,279 0,686 7,721 -7,435 -0,344 2,401 -6,628 -5,364 -3,318 -5,372 -5,963 -9,879
-19,023 -13,815 -19,519 -1,873 3,257 6,005 -2,535 3,957 7,546 0,349 0,000 3,842 2,946 2,105 -2,293
-26,156 -21,490 -21,202 -11,069 3,942 -0,343 -0,676 1,720 5,488 1,919 3,115 6,113 6,412 5,262 3,705
-26,666 -22,854 -26,754 -14,986 -7,713 -3,088 -3,379 1,376 2,915 3,140 2,595 8,383 6,932 5,788 4,939
-21,570 -20,637 -21,875 -11,921 -1,714 -5,662 -1,014 2,580 7,031 3,663 4,672 8,907 5,025 4,209 5,645
-25,307 -27,459 -28,774 -16,689 -11,827 -9,265 -6,083 -2,752 2,229 -2,791 0,000 1,747 -3,639 -4,209 -1,411
-22,590 -22,684 -28,942 -15,327 -10,627 -2,059 -10,138 -3,096 -0,514 -5,931 -2,942 -1,921 -9,877 -9,296 -7,056
-29,553 -29,336 -28,605 -25,204 -11,141 -13,383 -14,193 -7,913 -1,886 -9,594 -4,845 -5,414 -13,517 -11,927 -9,526
-29,893 -28,142 -30,793 -27,078 -20,568 -21,790 -17,235 -7,225 -3,087 -6,977 -5,364 -4,192 -9,877 -7,893 -7,762
-26,326 -23,707 -20,697 -22,309 -10,627 -15,442 -11,997 -4,989 -0,857 -2,268 -2,249 -2,794 -4,679 -3,508 -3,528
-29,553 -28,653 -21,706 -20,947 -16,797 -11,839 -8,448 -6,881 -6,517 -0,174 -3,288 -5,414 -2,773 -2,456 -3,881
-24,118 -22,684 -19,182 -10,388 -12,341 -1,716 -2,366 -4,989 -8,403 2,791 -3,288 -5,589 -1,040 -2,105 -5,116
-23,948 -23,707 -18,341 -8,515 -7,370 -0,858 1,352 -6,709 -7,203 2,268 -2,769 -6,462 -1,213 -2,806 -6,174
-17,834 -17,738 -21,202 -5,279 -11,655 4,461 0,000 -6,881 -7,031 0,349 -4,326 -6,637 -2,253 -3,508 -6,880
-12,059 -11,086 -13,461 -2,895 0,686 8,407 -0,169 -6,537 -3,430 -1,919 -4,672 -7,161 -4,506 -5,086 -6,351
-14,097 -13,303 -14,976 -5,279 -4,114 3,432 -4,393 -7,913 -5,316 -5,233 -7,959 -8,907 -7,971 -7,717 -7,585
-8,322 -5,799 -11,274 0,170 1,371 3,432 -5,407 -4,301 -5,145 -7,501 -9,171 -8,209 -10,397 -9,296 -8,468
-12,738 -11,257 -11,274 -5,960 4,799 -1,716 -8,786 -4,817 -1,372 -12,385 -10,901 -9,257 -13,690 -11,751 -10,055
-12,738 -11,086 -15,649 -3,917 -0,857 8,579 -11,828 -1,892 -1,200 -13,082 -12,631 -8,558 -13,517 -11,401 -11,114
-8,662 -8,016 -9,255 1,192 12,170 19,217 -7,604 3,096 2,572 -10,466 -8,998 -5,240 -10,224 -8,419 -8,468
-9,172 -13,815 -14,807 -4,428 7,199 6,520 -7,097 2,408 3,258 -8,722 -7,094 -4,017 -7,105 -5,963 -6,527
-2,038 -5,969 -10,096 -1,873 7,713 -3,775 -8,111 -1,376 0,686 -9,768 -8,825 -8,209 -7,625 -8,419 -8,820
-2,548 -4,605 -0,673 -6,131 7,027 -10,981 -11,659 -10,149 -6,174 -14,129 -13,843 -15,370 -11,437 -13,155 -14,995
-4,926 -3,923 -4,038 -8,004 -4,971 -8,750 -15,038 -12,558 -13,891 -13,431 -15,746 -14,846 -10,571 -11,927 -16,406
-6,284 -3,752 -3,365 -7,834 0,514 -5,491 -11,828 -10,494 -10,804 -9,594 -9,863 -8,558 -6,758 -7,893 -12,172
-9,511 -8,869 -11,106 -12,262 -9,084 -6,177 -13,180 -11,354 -8,575 -9,245 -7,613 -5,414 -5,892 -6,665 -11,114
-3,397 -2,388 -7,067 -7,663 -6,170 7,893 -10,645 -7,225 -4,973 -5,931 -5,191 -2,794 -3,119 -3,859 -9,173
-10,361 -10,063 -5,385 -12,943 -3,428 6,692 -7,097 -8,085 -2,744 -4,710 -3,288 -3,842 -1,906 -2,105 -5,998
-18,853 -17,056 -18,341 -17,541 -15,940 -5,319 -10,307 -13,418 -6,517 -7,326 -7,267 -7,685 -4,506 -3,859 -5,998
-21,231 -17,908 -20,192 -19,414 -13,198 -16,128 -13,349 -20,471 -11,147 -11,513 -12,112 -13,274 -8,318 -6,139 -6,351
-26,496 -24,560 -25,745 -23,331 -24,339 -22,992 -19,431 -26,492 -18,522 -15,524 -17,649 -16,941 -11,784 -8,068 -7,056
-20,212 -18,420 -23,894 -16,178 -21,254 -13,555 -20,107 -23,051 -18,007 -13,431 -17,130 -15,894 -10,224 -6,665 -5,998
-16,985 -18,249 -18,846 -15,157 -14,741 -10,123 -16,559 -19,439 -11,662 -10,117 -13,323 -13,972 -6,585 -3,859 -4,234
-13,248 -15,862 -20,697 -11,921 -19,883 -15,614 -15,376 -16,686 -8,060 -8,896 -11,766 -12,226 -4,852 -2,280 -2,646
-13,758 -14,327 -14,303 -11,069 -11,484 -20,418 -12,842 -16,170 -7,546 -10,815 -12,112 -13,623 -6,585 -5,086 -4,410
-21,061 -20,126 -20,024 -16,349 -16,969 -17,673 -13,687 -17,202 -9,604 -12,734 -14,881 -15,370 -8,318 -8,419 -10,055
-18,174 -14,497 -21,706 -10,218 -10,798 -3,946 -12,166 -12,558 -4,630 -10,989 -13,323 -10,305 -7,798 -8,244 -11,290
-22,590 -19,273 -22,043 -10,388 -6,513 -1,887 -9,800 -12,902 -2,744 -11,513 -11,420 -8,383 -9,531 -10,348 -11,819
47,897 43,150 44,422 25,886 25,025 10,981 15,376 17,891 2,401 12,036 9,517 0,699 19,408 16,662 6,703
50,784 48,608 55,528 26,396 33,081 19,217 18,418 17,719 2,401 13,431 10,901 0,873 20,101 15,785 5,821
41,612 37,863 44,422 22,990 20,397 16,300 13,349 10,666 -3,601 9,419 6,229 -3,842 16,462 11,927 1,940
42,631 40,251 34,999 29,121 26,910 12,868 10,645 9,633 -1,200 6,280 3,461 -4,017 12,997 9,121 0,706
37,536 32,576 23,726 21,969 21,254 3,260 5,238 4,645 -0,343 1,570 -0,173 -5,589 9,184 5,963 0,529
37,876 29,847 19,519 17,200 12,170 4,633 0,338 1,892 -5,316 0,000 -2,942 -6,288 9,011 5,788 1,235
38,555 32,235 26,754 20,436 17,140 5,491 0,338 1,376 -9,604 1,221 -2,422 -7,335 11,437 7,191 3,175
23,948 20,126 19,014 14,475 1,714 -2,402 -1,014 -2,580 -16,807 3,140 -3,115 -8,034 15,076 9,471 4,057
21,740 23,196 22,043 18,052 10,798 8,064 5,576 1,892 -12,862 8,896 1,557 -2,096 19,062 13,330 8,115
14,777 14,497 16,490 9,026 10,798 3,603 7,097 2,924 -7,717 9,419 4,326 1,223 17,156 12,453 8,997
17,324 11,768 11,442 10,218 8,399 -2,402 7,266 6,537 -3,258 9,768 5,883 4,192 15,076 11,927 9,350
28,534 21,661 20,024 19,244 19,883 3,775 11,321 11,354 2,744 10,466 8,825 6,462 13,863 12,278 11,114
25,137 17,056 15,817 9,707 7,027 -0,858 7,604 6,537 1,200 5,756 5,537 2,969 7,798 7,893 8,468
30,912 25,924 20,024 11,751 11,313 3,432 4,900 4,817 1,029 1,395 2,076 0,349 -0,520 1,228 2,293
28,874 24,731 18,678 11,751 6,685 1,373 1,352 -0,516 -6,002 -4,012 -3,634 -5,589 -8,664 -5,963 -5,116
29,383 25,583 20,528 17,881 2,742 1,201 1,690 -1,376 -9,947 -6,105 -7,440 -8,558 -12,997 -9,822 -9,879
31,591 32,576 32,307 27,759 16,797 5,319 8,448 4,129 -2,058 -4,535 -6,229 -6,113 -13,863 -10,699 -11,290
26,496 27,289 30,624 25,204 12,512 2,745 10,476 5,333 1,372 -5,059 -6,575 -6,113 -14,903 -12,804 -13,936
40,933 37,522 39,711 34,741 28,281 13,555 13,687 10,666 3,258 -4,535 -5,364 -6,637 -15,249 -14,207 -15,700
45,349 37,522 43,413 32,527 29,824 18,016 9,293 9,633 3,087 -10,117 -8,479 -11,178 -20,448 -19,469 -20,816
46,538 40,763 42,235 29,632 27,082 23,506 4,731 9,805 4,459 -15,176 -12,631 -13,972 -25,993 -23,678 -26,285
53,332 50,996 46,273 34,911 39,937 32,600 7,266 13,934 8,575 -15,176 -11,766 -12,575 -27,553 -24,204 -27,343
49,086 46,391 39,711 29,632 30,510 26,595 7,773 12,386 5,316 -15,176 -11,420 -11,527 -28,593 -23,854 -26,990
52,822 54,407 46,778 36,614 37,537 27,281 13,011 15,138 6,517 -11,687 -6,921 -6,462 -26,513 -20,872 -23,109
44,330 49,632 45,768 36,955 33,938 18,359 14,193 13,762 5,488 -8,722 -4,326 -3,668 -22,874 -17,539 -19,758
40,254 45,709 41,057 38,147 30,167 14,927 14,362 13,418 5,659 -5,059 -1,211 -1,572 -17,675 -13,505 -16,229
46,878 48,608 45,095 38,999 37,194 22,134 13,011 12,558 4,459 -4,361 0,173 -2,620 -16,289 -12,628 -14,642
47,217 41,445 42,908 26,226 22,625 22,305 5,069 7,225 -2,058 -7,326 -2,769 -6,288 -16,982 -13,330 -15,524
57,238 49,290 52,667 25,375 29,995 32,600 6,083 11,010 2,229 -3,663 0,346 -2,969 -12,130 -7,893 -10,761
50,784 42,468 49,134 18,222 27,596 31,227 9,293 12,214 4,802 0,698 4,672 1,048 -4,852 0,175 -2,646
39,404 34,793 37,187 16,008 19,540 20,761 9,800 11,010 5,488 1,919 6,748 3,493 -3,119 2,982 2,646
36,517 34,452 34,663 20,777 23,482 10,295 9,800 9,117 7,203 -0,349 6,229 3,493 -7,798 -1,052 1,058
27,345 25,242 25,072 15,668 9,084 -1,887 6,252 4,301 0,857 -3,838 2,076 1,048 -12,477 -5,963 -4,234
32,271 32,917 28,605 23,161 17,997 6,863 9,293 6,709 -0,686 -3,663 2,249 1,921 -13,863 -7,893 -6,880
30,233 27,801 25,240 20,266 15,426 8,407 6,252 4,301 -1,543 -6,454 0,346 1,048 -15,596 -9,822 -8,997
28,534 23,707 19,519 14,816 7,542 9,952 0,507 1,204 -1,543 -9,419 -2,422 0,175 -16,636 -10,699 -9,702
28,704 25,754 22,884 12,602 12,855 6,692 -1,352 0,172 -1,886 -9,245 -3,634 -1,223 -15,249 -9,471 -9,526
15,286 13,644 16,154 5,109 -1,371 -4,633 -4,562 -4,301 -7,203 -9,245 -6,921 -5,589 -11,437 -7,367 -9,879
16,475 18,591 24,230 14,816 6,685 1,373 -0,845 -1,032 -4,459 -6,105 -6,056 -4,890 -5,892 -4,034 -7,938
16,645 16,032 24,735 12,091 5,142 -4,976 1,352 -1,548 -2,229 -5,233 -5,883 -4,541 -3,119 -3,508 -7,762
21,570 17,397 18,846 9,196 1,885 -8,579 2,197 -1,720 -2,229 -4,884 -6,229 -4,192 -2,773 -3,859 -8,115
32,101 23,707 15,649 12,943 15,255 2,917 5,576 1,032 1,543 -3,489 -4,499 -1,921 -2,079 -3,157 -7,056
29,723 17,397 4,543 10,559 8,741 8,579 4,224 0,344 2,401 -3,314 -4,326 -0,349 -1,386 -1,929 -6,703
36,177 29,847 16,322 21,969 21,082 16,815 7,773 4,645 7,546 -1,221 -1,384 1,223 -0,693 -0,526 -5,645
36,517 33,941 31,634 22,650 20,225 13,383 6,759 2,236 7,374 -3,489 -2,422 -2,794 -3,986 -3,157 -8,115
36,857 34,282 43,918 20,606 12,170 8,064 4,562 -0,172 1,200 -3,663 -4,153 -5,414 -4,679 -4,034 -10,232
37,366 37,522 53,004 23,161 17,140 6,348 7,097 -0,172 -3,258 -1,047 -2,422 -5,764 -2,426 -2,631 -8,644
27,685 25,924 38,533 16,178 2,914 -1,373 4,562 -4,989 -12,348 -1,221 -4,672 -9,781 -2,599 -3,157 -8,468
33,290 31,382 31,466 21,287 14,226 4,633 8,955 0,516 -8,575 4,361 -1,557 -6,288 0,866 0,351 -4,939
32,950 28,994 19,182 20,606 18,683 8,579 12,842 2,924 -4,630 7,849 2,249 -2,620 4,332 3,859 -1,235
34,139 28,653 11,442 23,161 17,997 18,530 13,687 4,301 -7,203 8,896 4,153 -0,349 5,372 5,086 0,176
41,273 36,499 21,875 27,759 29,995 25,565 14,869 8,257 -2,744 8,547 6,575 2,271 3,812 4,209 -0,176
36,177 29,847 22,716 18,222 18,169 15,442 10,983 6,021 -0,686 4,012 5,191 1,747 0,866 2,105 -1,588
38,555 36,158 32,644 20,436 22,625 11,667 10,307 7,053 1,715 2,268 5,018 2,620 -0,347 1,929 -0,529
29,214 30,529 35,336 15,497 16,797 3,088 7,266 4,645 2,572 -0,698 3,115 1,048 -2,426 0,175 -1,058
24,798 29,165 33,653 14,646 11,484 3,432 4,900 6,365 4,287 -0,523 2,422 1,921 -0,520 1,579 -1,411
32,101 37,352 39,038 24,523 26,396 10,466 10,476 15,138 13,205 6,280 9,171 11,003 7,971 10,173 5,998
29,553 26,095 27,932 20,436 17,483 4,118 9,800 14,622 14,577 6,977 11,939 14,147 10,224 12,979 11,643
34,309 26,607 25,576 21,287 22,282 11,153 8,111 14,622 13,377 5,756 11,939 15,195 7,105 10,699 12,525
26,156 18,761 19,351 11,921 16,112 10,981 4,055 10,321 5,659 2,616 8,652 11,527 2,599 5,788 8,997
20,042 15,862 16,995 8,856 8,570 9,094 2,197 8,601 -0,343 1,744 5,191 8,209 2,079 3,508 3,705
24,288 23,196 27,091 11,751 17,312 9,608 4,900 9,805 0,000 3,140 4,845 7,161 5,372 5,086 2,999
20,042 16,373 20,697 4,087 5,142 -2,402 1,352 4,473 -4,802 2,093 1,903 3,318 8,145 6,840 3,175
28,025 24,048 18,509 10,899 11,998 0,343 2,535 5,677 -3,773 5,407 3,115 4,192 12,823 10,874 5,645
26,496 20,467 12,452 9,537 8,570 -3,260 2,704 3,613 -5,488 7,152 3,980 3,842 16,116 14,382 8,997
23,778 17,056 9,423 7,663 0,857 -6,177 2,535 2,064 -9,261 8,024 3,807 2,445 18,715 16,662 11,819
25,986 21,831 21,033 9,537 7,713 0,858 4,393 1,548 -9,947 7,849 3,980 0,699 18,888 16,312 13,407
17,664 13,986 23,557 -0,511 -6,513 0,172 -1,183 -5,505 -14,920 2,791 -0,865 -3,144 14,903 11,576 10,232
25,986 24,731 37,523 4,257 1,885 9,780 -2,535 -6,881 -13,891 0,872 -2,769 -4,192 12,477 8,068 6,703
32,101 28,483 40,889 5,109 1,714 10,123 -5,407 -11,354 -11,319 -1,919 -5,710 -5,764 8,145 3,508 2,646
49,595 45,197 51,658 12,262 2,742 13,555 -5,745 -12,730 -8,746 -1,221 -6,402 -3,318 5,372 1,052 1,235
77,110 75,044 77,403 26,056 19,197 23,335 -0,676 -9,461 -3,430 3,663 -1,903 2,445 7,278 3,332 2,470
101,568 99,093 101,633 33,208 19,368 29,511 2,535 -7,913 0,343 7,501 2,422 6,288 11,784 8,594 6,703
143,520 142,243 147,570 56,199 45,250 52,846 10,983 2,064 5,488 12,210 9,171 10,305 15,596 12,278 10,408
173,243 168,850 186,776 66,757 58,105 66,229 10,814 1,892 4,630 5,756 7,613 6,637 9,184 7,191 7,409
204,835 196,139 220,765 79,360 66,161 83,902 6,928 0,860 4,973 -1,047 1,730 4,192 1,906 1,929 2,999
233,878 225,645 257,784 97,411 89,815 104,663 10,138 4,645 14,406 -2,442 0,865 6,637 -1,040 0,526 2,823
229,292 225,645 264,178 97,071 86,901 102,947 9,462 2,236 19,208 -5,233 -1,730 6,113 -3,292 -1,754 1,058
221,649 226,327 259,635 100,988 94,957 103,462 10,307 3,440 25,210 -3,489 -2,422 5,938 1,213 0,351 -0,706
205,854 212,000 241,967 93,835 91,186 92,481 10,307 1,032 23,666 -0,872 -1,730 2,969 6,412 2,982 -0,176
195,153 197,844 220,934 85,320 79,016 82,529 6,252 -0,860 16,464 -0,872 -3,461 -0,175 5,372 1,403 -3,881
192,775 193,410 216,559 82,936 82,787 82,014 7,942 2,064 16,292 1,221 0,000 0,000 4,852 0,702 -5,116
171,375 167,997 197,881 63,351 59,305 69,318 -0,169 -6,193 4,802 -5,407 -5,537 -6,986 -2,599 -6,314 -12,525
163,392 157,764 192,833 62,670 58,448 72,578 0,507 -2,580 -0,686 -2,965 -4,845 -3,318 -1,213 -3,683 -11,290
144,369 138,491 179,877 57,050 52,449 63,484 3,548 -1,376 -2,229 -1,395 -2,769 0,000 0,866 -0,702 -5,821
124,327 121,947 156,992 51,260 42,165 53,189 3,548 -1,204 -3,258 -2,093 -3,980 -0,349 1,906 0,351 -3,175
109,041 112,396 137,137 48,535 44,565 47,184 3,548 -0,688 -4,287 -3,663 -5,710 -4,192 1,386 -1,228 -3,352
91,377 94,147 112,570 35,933 25,882 28,310 -2,535 -5,677 -12,176 -9,070 -11,939 -10,479 -5,025 -7,542 -7,585
94,095 96,364 110,383 33,208 28,624 20,761 -3,210 -2,408 -9,261 -10,292 -13,496 -8,034 -10,224 -10,874 -9,350
89,849 88,348 105,671 21,798 25,539 12,525 -2,366 0,516 -2,915 -7,326 -10,382 -3,144 -7,798 -7,016 -5,821
82,545 80,843 97,763 18,903 22,282 10,638 0,845 6,537 2,401 -0,174 -3,288 2,271 1,386 2,105 2,117
78,129 79,649 94,902 22,480 33,252 15,785 5,745 12,386 8,403 4,884 3,461 5,414 7,105 7,717 7,938
66,919 67,028 77,571 14,475 20,397 12,697 3,210 9,461 4,116 2,791 2,595 2,445 4,332 5,613 6,174
72,354 73,509 76,056 20,436 25,710 23,163 4,055 10,321 2,058 2,442 2,769 1,572 1,733 4,209 4,057
66,919 68,563 73,869 19,584 19,883 22,820 2,872 7,225 -3,087 0,000 0,865 0,175 0,173 3,157 3,352
58,597 60,888 69,494 21,969 12,341 19,732 2,366 6,365 -5,316 -1,570 -1,730 -0,175 -0,173 2,631 2,823
54,521 56,965 67,307 27,929 22,282 23,335 6,083 10,149 -3,430 -0,698 -1,211 1,921 0,693 3,332 2,646
43,141 41,957 53,004 23,842 14,912 18,016 7,097 11,698 -0,686 0,174 0,519 4,716 1,906 4,911 3,705
48,576 49,632 58,725 31,846 27,939 23,678 12,504 18,751 7,717 4,535 6,402 8,383 5,545 8,244 6,351
48,406 49,973 60,408 27,929 26,910 24,364 13,011 18,407 10,290 4,884 8,652 6,113 5,199 7,367 4,410
47,217 49,120 59,398 22,139 19,883 26,766 9,969 15,998 9,947 2,965 7,613 3,668 1,733 4,385 0,176
45,858 46,562 61,585 19,414 24,510 25,222 7,942 14,966 10,461 1,744 6,575 2,271 -1,040 1,929 -2,999
32,101 27,801 47,451 5,790 9,084 5,147 4,055 9,461 6,688 -0,872 3,115 -2,620 -2,426 -0,877 -6,703
27,345 26,436 43,244 6,471 13,369 -4,976 5,407 10,666 2,572 -0,523 2,076 -5,065 -1,040 -1,579 -8,997
18,853 17,226 34,663 5,620 9,770 -14,241 5,914 11,870 -2,229 0,698 1,557 -6,113 0,866 -1,052 -10,055
20,382 15,350 27,764 8,685 8,056 -6,863 10,138 18,235 -1,200 6,454 5,537 -1,048 5,892 3,683 -6,351
29,383 26,777 35,841 17,371 23,482 13,726 19,938 28,900 9,089 15,873 15,573 8,733 13,863 12,278 2,646
21,401 20,126 28,605 16,178 18,169 22,648 25,514 32,857 13,034 22,327 22,494 13,623 19,928 18,592 9,702
23,609 24,731 27,427 29,973 30,852 36,203 33,794 41,630 20,065 30,002 30,108 18,863 25,647 24,380 15,171
20,212 21,319 22,884 34,741 33,766 29,855 39,032 46,619 28,468 35,235 35,991 24,102 29,112 28,940 19,758
18,343 19,955 16,322 34,571 30,852 18,359 41,060 47,995 29,669 36,631 38,586 26,023 29,806 30,168 22,580
25,137 26,777 23,726 35,933 39,080 15,614 41,228 47,651 25,553 35,933 38,067 24,452 29,632 29,817 23,286
21,570 20,126 26,754 25,886 24,853 5,834 34,639 41,630 18,693 33,491 34,260 22,181 29,979 29,817 23,462
31,591 30,700 42,908 30,484 32,566 16,128 35,146 44,554 20,580 36,980 36,683 27,246 34,831 34,903 28,401
33,290 30,700 48,461 27,078 32,738 22,477 37,173 45,242 25,553 39,422 40,663 32,311 38,817 39,464 35,105
30,742 27,801 42,403 23,331 28,281 19,388 36,835 43,866 25,553 39,596 42,220 33,708 40,030 41,393 38,104
33,460 31,894 39,879 30,313 38,051 19,560 38,018 44,898 25,381 39,596 42,739 33,883 40,203 41,568 38,986
26,666 24,219 28,269 27,418 29,138 13,898 34,808 40,942 22,123 36,631 39,624 31,612 37,430 39,113 37,398
29,044 30,700 32,139 31,335 37,708 18,359 33,963 40,598 22,294 34,538 37,721 30,914 34,138 36,833 36,340
23,439 26,266 32,139 23,161 34,966 19,045 30,077 36,469 19,379 30,526 33,222 27,246 29,112 32,273 33,517
22,420 25,583 31,129 20,436 29,995 28,310 27,373 36,297 19,551 28,956 30,627 27,421 25,647 28,765 30,871
29,893 31,894 35,336 28,951 41,308 39,120 30,583 40,770 27,268 30,002 32,703 31,088 25,127 28,063 31,577
29,214 25,072 25,745 27,759 31,881 32,943 31,259 40,770 30,183 30,177 32,876 31,787 24,607 27,537 31,753
38,385 35,476 30,793 38,999 44,393 42,037 37,511 47,479 36,700 34,189 37,029 36,503 26,686 29,291 33,694
35,158 33,941 30,624 38,828 46,793 43,066 41,397 48,167 37,558 34,886 38,932 37,201 25,473 27,712 33,694
29,214 29,506 28,437 36,955 41,822 36,203 41,060 45,759 33,613 31,398 35,645 33,010 20,101 22,100 27,872
28,874 32,235 36,346 41,723 46,793 30,369 38,694 43,178 31,212 27,211 31,492 29,342 14,730 17,890 21,698
24,628 27,289 35,672 34,911 33,766 19,388 31,428 37,845 26,925 22,327 27,166 27,071 11,264 16,136 19,052
35,838 36,328 41,225 36,785 41,308 20,075 29,570 39,394 24,524 21,281 26,647 27,421 10,051 15,785 18,699
41,273 35,305 37,523 32,527 39,594 10,981 26,697 37,501 21,780 18,490 24,917 25,325 9,184 14,207 16,406
46,538 37,693 34,326 33,038 34,623 10,466 24,669 36,641 20,751 18,141 23,878 23,054 10,051 13,505 14,642
50,784 44,344 41,225 38,488 45,593 24,879 29,570 39,566 26,239 21,978 26,993 23,928 13,343 14,909 13,760
33,630 31,041 30,456 30,654 34,280 28,482 30,921 35,953 27,782 22,676 27,339 21,832 13,517 14,032 11,290
23,778 30,188 24,735 36,955 39,080 36,546 32,949 34,577 29,154 23,548 27,512 21,482 13,343 13,330 9,350
10,021 18,420 13,125 35,082 31,709 27,281 28,556 26,664 25,210 20,409 24,051 19,037 11,610 11,401 7,585
4,586 9,551 0,505 26,737 20,740 14,927 22,473 21,159 18,693 19,362 20,937 18,513 12,650 12,278 8,115
8,492 9,210 0,505 17,711 25,196 5,834 23,149 21,675 15,949 23,200 24,398 22,181 18,888 18,066 14,465
12,738 5,799 0,841 5,790 10,284 -9,952 19,262 16,514 11,319 22,502 24,051 21,308 23,047 20,170 17,111
34,649 24,901 25,408 10,899 18,854 -2,574 17,404 14,966 14,063 21,281 23,186 20,959 25,647 20,872 17,288
34,818 24,731 34,999 4,257 13,369 2,917 9,631 6,193 11,490 13,780 17,476 15,195 19,235 14,207 12,525
26,326 21,661 32,812 -0,341 1,543 9,780 -0,676 -2,924 3,773 3,314 7,959 8,383 5,372 2,631 2,999
22,250 24,901 36,177 3,917 6,513 15,785 -6,421 -7,741 0,000 -5,756 0,173 5,065 -8,145 -7,367 -3,705
5,265 8,698 20,024 -4,939 -7,199 6,520 -14,869 -16,170 -5,831 -15,001 -8,825 -0,349 -18,022 -15,084 -10,408
0,849 5,628 10,096 -4,428 -0,514 11,839 -16,221 -15,654 -4,973 -15,524 -11,074 -1,223 -18,542 -14,558 -11,643
-2,208 -0,171 0,841 -8,174 -0,686 9,608 -15,714 -15,826 -1,200 -13,780 -10,382 -1,747 -15,596 -11,751 -9,879
-1,189 3,070 -1,851 -2,384 -2,914 8,064 -12,504 -13,934 -0,343 -9,245 -8,306 -1,397 -9,011 -6,665 -7,409
2,378 12,621 5,216 9,537 9,256 11,839 -5,238 -9,633 2,572 -3,838 -3,980 1,048 -2,599 -1,228 -3,528
-5,775 1,194 -9,423 4,087 -1,200 5,147 -3,210 -10,321 1,543 -2,791 -2,422 1,572 -1,906 -0,175 -1,940
-2,718 -0,341 -15,312 7,323 5,999 2,917 1,352 -4,817 2,401 0,349 1,903 5,589 -0,693 2,105 1,411
-7,813 -9,551 -20,192 0,341 3,599 -14,069 0,169 -4,301 1,200 0,698 3,807 5,764 0,866 4,034 3,705
-5,435 -8,357 -14,134 -4,598 1,028 -14,756 -3,210 -3,957 0,000 2,442 5,018 6,288 4,852 7,367 5,116
0,679 2,388 3,365 -2,384 12,512 -5,491 -4,393 -3,440 2,572 3,663 6,575 6,462 8,145 9,822 6,703
-6,454 -4,264 0,505 -8,515 -0,857 -9,608 -8,617 -8,945 -2,401 1,570 3,634 2,271 8,145 9,647 6,880
-3,567 0,512 6,394 -1,873 4,628 -4,289 -4,055 -6,537 -6,002 4,012 4,499 2,445 9,531 10,874 8,644
-10,870 -4,264 0,505 -4,428 2,742 -1,201 -0,676 -6,021 -6,688 4,361 5,191 2,620 9,358 10,348 7,762
-12,229 -6,652 -12,620 -6,812 -1,371 1,029 -1,183 -4,989 -5,659 4,012 5,537 3,668 8,664 9,822 6,703
0,340 1,876 -10,264 0,511 9,770 3,603 1,521 0,860 -0,857 7,675 9,517 8,034 12,130 13,330 9,879
0,679 -1,364 -8,750 -4,768 0,514 0,172 0,676 0,516 0,171 9,419 12,112 9,781 15,249 15,610 13,054
7,813 8,528 4,711 -0,511 7,027 11,324 1,014 1,376 3,258 9,768 14,016 11,876 15,943 16,487 14,465
1,698 2,047 4,711 -5,790 0,000 5,491 -2,704 -5,333 2,915 5,059 10,728 8,209 12,997 14,207 13,407
-4,756 -6,993 -4,375 -9,707 -12,684 -12,697 -7,942 -13,246 -8,918 0,349 4,499 0,524 10,917 12,979 11,290
-5,265 -9,039 -8,077 -5,620 -8,227 -28,310 -8,786 -15,310 -16,464 -1,919 1,384 -4,192 10,744 12,628 10,408
-15,456 -20,637 -24,903 -13,113 -19,368 -36,546 -14,362 -19,095 -20,923 -6,454 -3,634 -9,955 6,585 7,542 3,705
-10,870 -11,257 -24,062 -11,069 -7,884 -20,246 -15,207 -13,762 -16,464 -6,105 -4,153 -10,305 5,025 5,086 -1,588
-10,700 -8,869 -20,192 -14,986 -3,771 -9,094 -12,842 -8,773 -10,633 -3,663 -1,903 -7,335 6,412 6,490 -1,411
-10,870 -6,822 -12,452 -15,668 -4,456 4,461 -7,773 -3,613 -4,116 1,395 2,422 -1,921 11,090 10,874 3,175
-8,832 -3,411 -0,841 -9,877 4,456 16,300 -1,859 0,516 4,116 6,105 7,440 3,493 15,943 15,610 8,997
-18,004 -16,203 -9,759 -14,986 -10,113 5,662 -2,704 -3,268 0,857 7,326 8,479 5,589 19,928 19,820 14,642
-16,135 -13,474 -12,115 -6,812 -6,342 -3,432 -1,521 -3,440 -4,287 9,768 10,728 7,510 25,820 26,134 22,580
-23,099 -20,978 -22,884 -10,048 -11,998 -21,276 -5,069 -9,117 -11,662 7,501 9,690 4,541 28,939 30,343 29,460
-26,156 -26,777 -36,682 -17,881 -21,425 -33,286 -12,842 -15,654 -18,693 1,395 5,364 0,699 26,167 29,817 32,106
-22,759 -22,513 -36,850 -24,183 -15,426 -30,884 -18,587 -18,063 -18,693 -3,314 2,422 -1,223 21,314 26,485 30,518
-28,874 -27,801 -39,038 -35,763 -26,739 -31,056 -24,332 -21,331 -18,865 -5,756 -0,519 -2,096 18,195 23,327 27,519
-21,910 -17,567 -24,062 -30,143 -17,140 -19,217 -20,783 -16,514 -13,548 -3,140 1,211 1,572 16,809 22,100 26,990
-24,118 -21,661 -17,668 -30,654 -18,511 -15,099 -17,404 -15,138 -12,348 -0,698 2,595 5,240 15,943 21,047 26,637
-26,156 -27,118 -21,033 -27,589 -22,282 -8,579 -13,687 -12,386 -11,147 3,489 4,845 8,907 17,329 21,223 27,519
-25,817 -25,242 -22,379 -18,903 -10,456 -1,029 -8,279 -7,053 -6,345 6,803 7,786 12,051 17,849 21,047 27,519
-34,818 -35,476 -35,336 -24,183 -20,225 -13,383 -9,124 -8,945 -6,860 4,535 6,402 9,257 14,036 17,013 23,638
-30,233 -28,142 -32,980 -14,816 -10,798 -16,986 -5,914 -5,849 -4,116 4,186 5,883 6,986 9,531 12,102 17,641
-36,177 -31,212 -34,831 -15,838 -9,941 -21,790 -4,224 -6,365 -2,401 2,268 4,153 3,318 4,679 5,437 8,997
-36,007 -30,359 -39,206 -16,008 -12,170 -18,359 -3,717 -4,645 -1,715 2,442 2,769 2,794 3,292 2,105 2,117
-23,609 -18,079 -28,942 -8,515 2,400 -7,549 -0,169 -0,172 3,601 4,710 5,710 5,240 4,852 2,982 1,764
-22,420 -22,002 -29,615 -14,816 -7,027 -12,010 -4,731 -5,161 -0,857 1,570 2,942 0,699 2,599 1,052 0,176
-10,191 -11,768 -20,360 -7,834 2,571 -2,231 -5,576 -3,957 -3,258 1,395 1,038 -0,175 1,213 0,526 -0,706
-7,983 -13,133 -16,658 -6,471 5,485 1,373 -4,900 -2,752 0,343 0,698 0,865 1,223 -0,520 -0,702 -1,058
-7,134 -13,986 -17,331 -4,768 3,428 3,260 -4,562 -1,548 0,686 -0,698 0,000 2,271 -3,292 -2,631 -1,764
-5,775 -9,722 -12,283 -0,681 13,541 12,868 -1,859 -0,172 0,171 -1,570 0,346 1,223 -4,679 -4,034 -2,823
-17,664 -19,955 -19,687 -8,856 1,028 2,745 -4,562 -4,645 -3,601 -4,361 -2,595 -2,794 -5,719 -5,086 -4,763
-16,475 -11,257 -16,490 -1,703 7,542 0,515 -2,872 -1,892 -3,430 -2,442 -1,211 -2,271 -3,986 -2,982 -3,175
-18,683 -9,722 -17,668 2,725 7,027 -4,289 -0,338 1,548 -1,372 2,791 3,288 1,223 1,733 2,631 1,764
-16,135 -7,334 -13,461 7,153 4,971 -1,373 4,055 6,193 3,087 8,722 8,652 5,414 7,625 7,717 6,703
-11,040 -2,899 -1,346 11,580 17,654 8,236 10,476 11,870 7,889 13,955 13,843 10,479 12,130 11,751 10,408
-24,458 -18,932 -13,798 0,170 7,199 -0,858 8,786 8,945 7,031 12,559 12,977 9,431 11,090 10,524 10,055
-26,666 -24,560 -23,894 -3,065 10,284 -7,206 6,590 7,225 6,174 9,594 10,209 6,986 7,798 6,840 5,645
-28,704 -33,088 -36,009 -12,772 1,200 -23,335 -0,507 -0,516 0,000 4,361 5,018 1,921 3,986 2,456 0,529
-23,099 -27,801 -34,999 -16,349 -9,256 -25,222 -6,759 -5,677 -4,116 1,570 1,038 -0,349 0,173 -0,877 -2,823
-14,097 -13,133 -16,658 -12,602 -2,228 -11,667 -6,590 -6,021 -2,058 0,523 0,346 -0,175 -3,119 -3,859 -4,763
-20,382 -15,521 -13,293 -20,606 -14,055 -3,432 -9,969 -9,461 -2,401 -2,093 -2,076 -0,699 -5,372 -6,139 -7,056
-15,966 -6,311 -5,048 -15,157 -4,285 20,418 -7,942 -7,053 0,000 -1,744 -1,730 1,223 -5,372 -5,963 -5,998
-21,740 -14,327 -12,452 -16,178 -4,799 22,305 -8,617 -9,461 -2,229 -5,059 -5,018 -2,271 -7,625 -8,244 -7,409
-26,496 -22,343 -27,259 -14,816 -7,884 8,922 -7,773 -8,429 -2,058 -6,105 -8,133 -4,366 -8,318 -8,945 -9,173
-23,948 -22,002 -35,504 -6,812 4,971 -6,692 -0,507 -2,408 3,944 -2,616 -5,883 -0,524 -4,679 -5,963 -6,880
-26,326 -29,336 -45,095 -12,602 -5,999 -24,364 -0,169 -4,129 3,430 -0,698 -5,191 0,524 -0,520 -2,806 -4,057
-10,870 -14,838 -27,596 -8,174 0,857 -15,614 -1,352 -3,440 2,572 1,570 -2,769 1,397 3,292 0,702 -0,706
-7,813 -11,939 -9,423 -10,388 -0,857 -9,094 -6,759 -7,913 -3,258 -1,221 -3,980 -3,144 2,079 -0,702 -1,411
-12,229 -11,257 -1,514 -12,432 -6,513 -3,088 -12,504 -12,042 -11,319 -5,582 -8,133 -10,130 -1,733 -4,736 -6,703
-11,889 -5,969 3,197 -6,812 2,742 3,088 -12,166 -12,558 -15,263 -8,198 -10,901 -15,020 -5,892 -7,893 -10,761
-18,853 -15,691 -12,788 -7,834 -8,741 -3,432 -13,349 -15,310 -19,894 -10,989 -14,708 -17,815 -8,491 -9,296 -13,054
-7,983 -6,140 -14,303 2,214 1,714 -0,686 -5,238 -8,773 -13,548 -7,326 -11,247 -12,575 -5,025 -5,788 -9,879
-4,586 -5,969 -13,461 -2,214 0,686 -2,231 -3,717 -9,117 -6,860 -8,024 -9,517 -10,654 -4,506 -5,788 -8,997
-3,567 -5,458 -11,610 -7,834 -8,399 -3,260 -9,293 -13,074 -9,432 -11,164 -12,285 -13,972 -8,838 -9,296 -11,996
0,510 0,000 -1,851 -6,471 -1,543 -1,544 -11,490 -13,418 -13,377 -12,036 -13,496 -17,116 -12,650 -12,278 -14,465
-2,378 -7,846 -7,740 -12,432 -11,313 -6,520 -14,700 -15,826 -18,865 -12,559 -15,227 -19,736 -14,730 -14,382 -16,229
9,002 1,535 -6,394 -3,236 1,543 4,633 -9,462 -9,977 -14,920 -7,501 -11,247 -15,370 -12,130 -11,927 -13,760
6,794 -2,217 -13,630 -4,598 2,914 3,432 -6,928 -9,633 -9,775 -5,407 -8,825 -12,400 -9,358 -8,770 -10,408
3,906 -5,117 -18,846 -4,428 -2,228 -0,686 -6,590 -10,321 -9,089 -4,361 -8,306 -10,130 -6,412 -5,086 -5,645
6,284 -0,682 -11,947 4,768 8,399 8,579 -2,872 -9,289 -6,688 -4,884 -7,613 -8,383 -8,491 -7,016 -4,939
-9,681 -12,109 -18,173 0,000 -4,285 4,633 -5,745 -14,966 -9,432 -10,292 -12,285 -10,829 -15,249 -13,681 -11,290
-12,399 -5,117 -9,086 3,576 1,714 6,520 -5,069 -13,934 -7,717 -12,210 -14,708 -10,654 -19,235 -17,715 -16,053
-17,324 -8,187 -8,245 -3,406 -0,343 -1,201 -4,224 -14,794 -8,918 -12,908 -16,265 -12,750 -21,314 -20,521 -19,758
-16,475 -8,016 -14,303 -6,812 -4,971 -3,603 -4,055 -12,558 -8,403 -10,292 -15,573 -10,829 -19,062 -19,644 -20,110
-2,208 3,752 -4,711 1,533 8,056 0,172 -0,676 -6,365 2,915 -5,059 -9,171 -5,414 -12,823 -14,558 -16,229
1,529 -2,729 -6,226 -1,022 -2,057 -12,354 -3,886 -7,913 1,886 -4,710 -7,613 -6,288 -9,531 -11,225 -13,231
11,210 3,582 -0,673 5,450 8,741 -8,236 -1,859 -4,129 -1,543 -2,791 -5,883 -8,209 -7,971 -10,173 -11,643
2,718 -3,752 -6,562 0,170 9,084 -5,319 -3,041 -5,333 -6,517 -4,535 -7,613 -11,178 -10,051 -12,804 -14,642
-7,813 -10,916 -19,014 -2,044 3,942 -2,231 -4,224 -3,957 -7,889 -3,489 -7,440 -9,082 -8,491 -11,050 -14,465
-4,756 -4,434 -15,985 1,703 14,226 7,206 0,169 2,064 -2,058 1,919 -1,557 -3,668 -2,426 -5,437 -9,173
-2,718 -4,605 -13,461 -3,917 5,828 6,692 1,183 3,096 -1,715 5,407 2,249 -1,921 2,773 -0,877 -5,116
11,210 9,381 3,365 4,768 15,598 13,040 4,900 7,053 0,514 9,070 6,402 0,000 7,105 2,982 -0,706
10,530 6,652 8,413 5,109 11,484 3,775 3,041 3,096 -2,915 6,803 5,710 -2,445 5,545 2,280 0,000
8,322 3,752 3,702 3,917 2,057 -1,544 -2,366 -1,548 -9,089 2,442 1,211 -6,113 1,213 -1,228 -2,117
8,153 6,652 2,187 3,747 9,256 5,491 -4,224 -1,548 -10,976 0,523 -0,865 -8,383 -0,347 -2,982 -3,352
-8,832 -6,993 -13,966 -6,642 -2,400 2,917 -8,111 -3,785 -13,891 -0,698 -3,461 -12,226 0,000 -3,683 -5,116
-9,172 -4,093 -13,966 1,533 6,856 8,064 -4,055 2,408 -9,432 4,012 0,519 -9,257 2,599 -0,702 -2,823
-8,492 -6,822 -12,283 2,725 6,685 3,603 -0,169 2,924 -8,403 5,931 3,634 -7,335 2,599 0,000 -0,882
-3,906 -6,140 -12,620 1,533 1,028 0,515 1,352 0,516 -11,490 5,756 3,288 -6,986 1,386 -0,877 -1,940
3,906 1,023 -5,553 -1,362 8,056 -1,029 2,535 -1,892 -9,604 4,710 2,422 -5,589 0,347 -1,403 -2,999
-4,416 -8,528 -12,620 -16,178 -6,513 -9,780 -4,731 -10,494 -9,432 0,000 -2,595 -8,209 -3,119 -4,385 -5,292
-5,435 -5,799 -12,115 -13,965 -2,571 -4,633 -8,448 -12,214 -8,746 -2,616 -5,883 -9,431 -6,238 -7,191 -7,585
-11,550 -11,257 -17,836 -12,262 -4,799 -8,579 -11,152 -14,106 -8,575 -5,407 -8,652 -11,178 -8,318 -9,296 -9,879
-8,492 -10,233 -18,509 -7,663 -7,027 -8,064 -11,997 -12,558 -7,031 -6,977 -9,863 -10,654 -8,838 -9,997 -10,937
3,057 -0,341 -4,375 0,170 6,342 3,432 -8,955 -9,289 -5,488 -7,849 -9,171 -9,781 -10,571 -11,927 -11,114
-1,359 -6,481 -4,375 -7,323 -4,799 4,804 -12,504 -14,106 -11,662 -12,559 -13,323 -12,924 -15,596 -16,312 -14,995
3,737 3,070 4,375 -2,725 3,257 14,756 -11,828 -11,870 -8,403 -12,210 -13,323 -10,479 -16,116 -16,838 -15,524
0,340 2,388 4,880 -2,895 4,799 14,069 -8,955 -10,494 -4,630 -9,419 -11,247 -8,034 -13,170 -14,382 -13,407
-1,868 2,047 0,505 2,895 5,142 15,785 -3,548 -6,365 -0,171 -3,663 -7,613 -5,589 -8,318 -10,524 -10,408
-0,170 5,799 3,197 13,794 19,197 18,702 4,562 -1,376 4,459 0,698 -2,942 -3,668 -6,065 -8,770 -8,820
-8,662 -3,923 -7,909 10,388 9,084 9,780 3,548 -3,613 2,572 -0,349 -3,461 -4,541 -6,238 -8,945 -9,879
-0,679 5,458 -6,226 14,475 17,312 11,153 2,872 -0,172 6,860 0,000 -2,076 -1,921 -4,852 -7,367 -9,350
0,679 4,434 -8,245 5,790 14,398 1,887 -1,521 -1,204 8,575 -0,872 -2,249 -2,620 -3,292 -6,314 -9,173
-23,099 -25,413 -28,774 -11,580 -21,939 -13,040 -16,897 -14,794 -9,604 -19,013 -16,957 -13,448 -23,047 -18,767 -16,053
-18,853 -17,397 -22,211 -2,044 -10,970 -5,147 -14,531 -12,558 -10,804 -17,443 -17,476 -14,846 -23,221 -20,170 -17,817
-21,401 -23,878 -25,408 -9,537 -19,197 -12,354 -13,180 -15,310 -16,464 -15,699 -17,822 -16,068 -20,621 -18,943 -18,699
-10,870 -14,156 -20,528 -5,790 -12,341 -10,123 -7,942 -12,730 -17,836 -10,815 -15,400 -13,972 -15,423 -15,259 -17,111
-11,210 -13,986 -18,173 -9,026 -14,569 -16,986 -6,590 -15,310 -20,580 -9,245 -14,708 -14,322 -12,477 -13,155 -15,524
-12,738 -13,644 -15,985 -10,559 -22,454 -23,163 -9,124 -18,407 -22,123 -10,117 -15,746 -15,195 -13,343 -14,382 -16,406
-10,870 -8,187 -8,750 -11,921 -17,312 -21,276 -11,659 -18,407 -18,865 -11,861 -16,092 -14,496 -15,423 -15,961 -17,993
-22,420 -18,932 -13,125 -30,484 -27,939 -26,080 -18,925 -23,051 -19,551 -16,920 -19,207 -15,370 -18,715 -17,890 -19,758
-21,740 -14,327 -11,947 -24,523 -19,711 -19,732 -19,769 -18,923 -15,263 -16,571 -18,341 -11,178 -18,022 -16,312 -18,170
-28,704 -23,196 -19,519 -24,353 -20,397 -26,423 -19,094 -19,611 -14,234 -16,397 -17,130 -9,431 -15,596 -13,681 -15,877
-28,025 -29,506 -30,961 -26,907 -29,138 -30,713 -19,769 -22,363 -19,036 -16,048 -18,168 -11,003 -12,997 -11,751 -14,995
-19,532 -25,072 -29,278 -19,925 -22,111 -21,962 -16,897 -21,159 -21,094 -12,734 -17,130 -11,003 -8,664 -7,893 -12,878
-24,798 -31,212 -30,624 -21,458 -31,881 -21,619 -16,221 -22,191 -21,094 -10,640 -15,227 -9,955 -4,332 -3,508 -8,291
-13,418 -16,203 -16,827 -9,366 -21,939 -11,153 -11,997 -15,138 -13,720 -6,628 -10,555 -5,065 -1,213 0,351 -3,352
-10,700 -14,838 -10,096 -9,026 -19,026 -13,212 -9,293 -13,418 -10,461 -6,280 -8,306 -4,366 -1,733 1,052 -0,706
-11,380 -15,691 -13,293 -11,580 -21,425 -15,614 -11,490 -14,450 -13,548 -9,943 -11,074 -7,859 -6,585 -3,332 -2,646
-9,851 -10,233 -13,630 -9,026 -11,313 -10,809 -11,828 -12,386 -10,633 -12,210 -13,670 -8,209 -11,610 -9,822 -8,997
-20,382 -20,467 -21,538 -18,563 -18,854 -16,643 -13,687 -14,278 -8,918 -15,176 -16,438 -9,606 -15,769 -14,909 -14,465
-18,174 -16,373 -20,360 -15,327 -12,341 -13,040 -12,842 -11,182 -6,688 -15,001 -17,130 -9,431 -16,982 -16,487 -16,935
-24,798 -24,560 -26,081 -20,436 -16,283 -22,648 -13,518 -13,074 -11,662 -15,873 -18,168 -12,400 -16,982 -17,013 -18,346
-24,798 -24,560 -28,100 -22,309 -22,968 -22,992 -13,518 -11,870 -16,635 -14,129 -18,341 -13,623 -13,343 -14,558 -18,170
-12,399 -11,939 -13,461 -9,877 -7,884 -12,525 -7,773 -4,645 -13,891 -7,849 -13,323 -9,606 -5,372 -7,367 -12,525
-11,380 -16,373 -11,274 -7,153 -12,684 -15,442 -5,238 -4,301 -14,406 -4,186 -9,517 -7,859 0,173 -1,929 -5,998
-1,019 -7,163 -4,207 2,554 -4,628 -7,378 -2,028 -0,688 -13,034 -0,349 -5,537 -6,113 0,866 -0,877 -2,999
-6,454 -12,621 -4,375 -3,747 -6,170 -10,638 -2,366 -2,752 -13,205 -0,698 -4,672 -6,462 -2,079 -2,806 -3,881
-13,418 -15,691 -7,404 -7,153 -12,855 -13,898 -4,224 -4,645 -13,548 -1,395 -5,018 -4,716 -3,292 -2,806 -3,352
-13,248 -9,722 -6,899 0,681 -5,828 -12,182 -2,535 -3,613 -11,833 -0,698 -3,634 -1,397 -1,906 -0,526 -0,176
-21,061 -17,226 -19,687 -4,087 -14,398 -19,045 -3,717 -7,569 -12,176 -3,140 -5,710 -1,747 -2,773 -1,228 0,706
-10,361 -4,946 -17,331 3,406 -3,428 -6,520 -2,028 -3,268 -6,688 -2,093 -6,229 0,000 -1,560 -1,052 -0,882
-3,227 -3,070 -14,639 -4,939 1,885 2,917 0,507 1,032 -0,171 2,093 -3,461 3,144 3,812 2,631 -0,176
2,718 -3,241 -15,481 -7,153 1,714 7,893 5,238 7,569 7,717 8,198 2,422 7,335 9,877 8,068 3,352
4,756 0,853 -8,413 2,554 14,398 7,378 11,152 13,590 14,234 11,861 8,306 10,479 12,477 11,927 7,409
-13,078 -13,644 -14,471 -2,214 2,914 -8,922 7,097 8,429 11,490 7,849 6,921 7,510 9,184 9,471 7,056
-13,588 -9,381 -10,937 5,279 4,285 -12,010 3,717 6,021 7,717 5,407 3,807 4,716 7,451 6,490 2,470
-17,664 -12,280 -8,413 3,236 -1,371 -17,844 -0,338 -1,032 0,000 1,570 -0,519 0,175 6,065 3,508 -2,293
-18,683 -13,644 -9,759 0,170 -10,284 -17,329 -5,407 -7,741 -8,060 -2,965 -6,229 -4,192 2,599 -0,702 -6,880
-10,530 -6,993 -5,048 2,214 -5,313 -7,721 -5,069 -8,085 -9,775 -3,489 -8,479 -5,589 0,347 -3,332 -9,702
-8,662 -12,962 -9,423 -7,493 -13,369 -7,035 -4,393 -8,945 -10,633 -3,489 -9,517 -6,288 -0,347 -4,209 -10,584
5,435 -0,341 -2,187 2,214 -0,343 6,005 1,690 -0,860 -4,287 -0,174 -6,402 -2,271 0,173 -3,508 -8,820
3,397 -2,388 -2,692 4,939 4,114 4,976 4,055 0,516 -0,343 -3,140 -7,267 -4,017 -5,199 -8,770 -10,761
-0,510 -7,334 -14,134 3,747 -2,742 -1,716 1,352 -1,204 -1,372 -8,373 -12,804 -8,209 -12,823 -16,312 -17,288
4,246 -3,752 -14,639 2,044 4,456 -4,804 0,676 -0,860 -2,401 -11,513 -15,919 -12,051 -19,755 -23,327 -23,638
-7,303 -15,179 -18,846 -12,772 -7,713 -16,986 -4,731 -7,569 -10,118 -16,571 -20,764 -19,561 -26,686 -30,519 -31,224
-12,908 -9,039 -8,918 -3,917 -3,085 -12,182 -4,900 -6,365 -13,720 -15,350 -21,629 -21,133 -26,686 -30,694 -34,223
-21,910 -11,086 -2,692 0,000 -3,599 -13,726 -3,210 -6,365 -12,862 -13,082 -20,072 -19,212 -23,741 -27,362 -31,753
-18,174 -9,210 -2,019 4,598 -7,027 -10,123 -2,366 -5,849 -10,804 -11,338 -18,514 -16,592 -21,141 -23,678 -28,225
-5,435 -0,512 2,861 13,283 3,942 2,231 0,169 -3,613 -7,889 -9,768 -15,919 -12,400 -19,062 -20,346 -24,344
-7,983 -11,598 -11,106 -1,192 -8,056 -3,603 -4,224 -10,149 -10,118 -14,129 -17,303 -12,400 -21,314 -21,398 -23,286
-0,340 -8,187 -21,370 -8,004 -8,399 -2,402 -8,617 -11,870 -12,348 -17,269 -19,034 -11,353 -24,954 -24,029 -24,697
-4,926 -16,032 -30,288 -19,414 -13,027 -9,437 -12,335 -12,558 -11,490 -18,141 -17,995 -7,335 -25,647 -23,327 -23,109
-12,738 -20,808 -29,447 -23,842 -16,626 -14,413 -12,842 -8,773 -4,630 -14,303 -12,631 0,349 -20,968 -18,241 -17,288
-15,456 -15,350 -14,976 -19,244 -7,199 -11,839 -11,490 -5,505 4,287 -12,385 -8,306 4,017 -18,195 -15,785 -13,583
-25,137 -23,025 -11,610 -22,139 -19,197 -19,560 -15,714 -11,182 3,430 -16,222 -11,939 0,175 -19,928 -17,539 -14,995
-20,551 -13,474 -3,029 -10,899 -14,398 -16,300 -15,883 -10,494 2,401 -16,571 -14,016 -1,747 -18,542 -16,662 -13,936
-22,590 -13,815 -0,168 -11,580 -15,769 -21,276 -16,897 -14,106 -2,058 -19,188 -16,784 -6,288 -19,582 -18,592 -14,289
-16,305 -9,551 -0,337 -11,580 -19,711 -14,584 -17,573 -14,794 -7,031 -19,536 -19,899 -8,034 -20,101 -19,995 -16,759
4,586 7,504 10,264 2,214 -0,857 7,721 -7,266 -3,440 0,000 -10,292 -12,977 -0,349 -12,303 -12,453 -10,937
7,303 1,364 6,058 2,554 -1,200 12,354 -0,507 0,172 5,145 -5,931 -7,786 2,096 -8,145 -8,068 -6,527
12,908 4,605 4,543 6,301 6,170 16,986 1,690 1,548 7,374 -6,803 -7,094 -0,349 -9,877 -9,121 -7,056
1,359 -5,458 -8,413 -8,685 -1,028 4,118 -5,745 -6,537 1,029 -15,350 -14,362 -10,654 -18,715 -17,890 -15,700
-10,700 -12,792 -21,202 -22,990 -13,541 -8,579 -15,207 -13,762 -6,860 -24,072 -22,667 -19,037 -29,112 -27,888 -26,285
-13,588 -10,745 -18,004 -21,117 -9,941 -10,123 -19,431 -14,966 -9,604 -28,432 -26,647 -20,784 -35,351 -33,500 -32,812
-19,362 -18,591 -18,173 -23,501 -18,340 -14,584 -22,642 -17,202 -9,775 -30,002 -28,204 -20,784 -36,044 -33,851 -34,752
-1,019 -0,853 -1,514 -8,004 -5,828 -3,088 -16,390 -8,945 -6,517 -22,851 -22,667 -15,020 -28,419 -26,660 -29,636
4,416 2,217 10,264 -3,917 -2,228 -1,887 -9,969 -4,645 -7,203 -16,920 -16,611 -11,876 -19,928 -19,469 -22,756
-1,529 -5,287 10,433 -5,109 -9,599 -4,804 -8,786 -4,645 -11,662 -15,524 -15,054 -12,575 -15,769 -16,487 -19,228
-5,945 -7,846 8,245 -3,917 -5,142 -5,662 -9,293 -5,333 -16,121 -16,746 -16,092 -15,370 -16,462 -18,416 -20,463
-14,267 -15,009 0,000 -14,986 -15,940 -15,099 -13,855 -11,698 -22,294 -20,060 -19,899 -19,911 -19,928 -22,801 -24,344
-1,019 -2,899 1,683 -9,026 -9,427 -5,491 -14,024 -10,321 -20,408 -18,839 -20,591 -17,815 -20,621 -23,503 -25,226
10,700 3,752 8,077 -6,301 -6,170 2,745 -13,518 -12,558 -14,577 -17,618 -19,380 -15,020 -19,062 -21,573 -23,286
27,515 22,343 23,389 -1,362 -6,170 11,496 -15,545 -16,170 -11,490 -16,571 -19,207 -12,924 -13,690 -15,785 -18,523
57,578 58,842 57,715 10,048 8,056 22,820 -15,038 -16,514 -8,403 -13,780 -16,438 -8,733 -5,199 -7,542 -10,937
81,866 83,060 87,498 11,069 5,313 23,163 -17,066 -21,331 -11,662 -15,001 -16,265 -9,257 -3,639 -4,736 -6,703
127,554 128,940 137,474 33,719 25,196 46,155 -12,673 -15,482 -6,688 -11,687 -13,843 -5,065 -3,119 -2,982 -4,939
175,791 172,602 193,338 58,753 47,136 71,377 -3,041 -6,537 6,174 -3,838 -6,748 3,493 2,946 3,508 -0,353
218,762 212,512 240,453 80,722 63,762 90,593 5,407 -1,032 14,063 1,570 -0,173 8,209 7,798 9,121 6,880
252,222 245,600 276,125 99,966 85,530 103,462 12,166 4,129 19,208 4,535 2,769 10,654 10,224 11,050 9,526
251,542 241,677 281,846 97,582 82,616 95,569 13,180 2,064 20,065 3,838 2,422 9,606 11,264 10,874 9,350
243,220 238,095 281,510 106,097 93,585 102,089 17,573 7,741 23,838 8,896 4,845 12,575 18,195 15,610 11,290
217,063 212,171 262,495 106,267 95,814 96,599 20,107 8,601 25,724 12,210 7,267 12,750 25,127 20,521 15,347
202,457 191,193 233,385 99,796 85,872 88,363 18,925 5,849 23,495 12,385 6,229 8,383 26,513 19,995 15,347
196,342 185,735 212,352 89,067 80,045 82,872 15,376 1,548 18,693 8,896 1,211 -0,349 19,755 11,050 5,998
175,451 165,950 183,915 63,351 53,135 65,715 5,914 -8,601 5,316 1,221 -7,267 -9,955 10,571 1,929 -3,881
169,167 164,927 175,165 54,155 45,079 63,312 1,352 -9,633 -3,601 -1,744 -10,555 -13,099 6,585 -0,877 -7,585
154,390 151,794 167,930 38,999 33,081 51,130 -1,521 -11,698 -11,147 -4,535 -12,285 -15,719 3,986 -1,754 -8,468
127,385 129,793 152,113 30,824 21,082 38,434 -2,872 -10,321 -16,464 -6,105 -13,670 -16,767 1,386 -1,579 -8,468
106,663 106,768 139,493 36,785 32,738 37,404 3,379 -0,688 -10,633 -1,221 -9,344 -12,226 4,159 2,982 -3,881
84,244 73,509 115,262 29,632 30,338 27,109 9,124 6,537 -1,200 5,059 -3,288 -5,414 10,744 9,647 2,646
88,660 75,215 106,176 38,488 43,193 32,428 17,573 18,579 11,147 12,385 6,056 4,541 15,596 14,558 9,526
89,849 78,285 99,445 33,549 39,594 29,340 17,573 18,407 13,034 9,594 7,786 4,541 8,838 9,121 7,938
87,641 78,285 92,883 26,737 26,567 26,080 12,166 15,826 6,860 6,454 5,537 3,144 3,292 4,385 3,352
89,509 85,278 96,921 28,951 30,338 27,453 11,997 18,235 5,831 9,419 8,825 6,462 6,758 7,717 4,939
76,770 76,409 89,854 21,458 19,197 18,359 10,476 16,342 3,601 11,338 11,074 7,335 13,343 13,330 9,350
71,845 76,238 83,292 26,907 21,597 20,761 12,673 19,095 7,546 14,303 13,150 10,305 18,715 18,241 13,231
57,918 61,059 69,999 21,287 18,854 18,187 13,855 18,235 13,205 13,955 13,670 11,876 19,582 18,592 14,465
46,368 49,290 55,360 16,178 11,655 18,359 13,687 16,858 13,377 12,385 12,285 11,527 18,022 16,838 12,525
47,217 50,825 55,360 24,693 22,111 28,654 16,897 19,439 15,092 12,385 12,631 11,876 17,502 15,785 11,114
37,366 37,863 48,124 18,903 12,512 26,938 14,193 14,278 10,804 8,024 8,998 8,209 14,730 12,979 8,644
39,744 40,251 45,768 20,095 15,083 30,198 12,504 14,278 8,575 6,803 6,921 8,034 13,343 11,401 7,056
33,290 29,336 34,158 9,366 11,484 20,075 10,138 12,214 10,290 4,361 5,883 7,335 11,090 9,121 5,645
25,307 18,932 23,221 3,406 3,257 7,378 7,266 10,321 8,403 2,965 3,980 5,240 9,011 6,490 2,470
21,061 19,443 24,230 12,091 10,627 5,147 9,631 12,902 8,403 5,931 6,229 6,113 10,051 7,542 2,117
6,284 6,140 15,144 6,301 -0,171 -6,177 7,604 8,773 3,944 5,931 7,440 3,668 10,917 8,419 3,352
6,284 7,504 14,134 7,323 0,857 -6,520 5,407 7,397 -1,886 6,280 7,613 1,747 10,917 8,770 3,528
-0,510 -1,706 8,582 0,341 -4,114 -10,123 2,872 4,301 -5,831 6,628 7,094 1,397 11,090 9,296 3,705
-0,170 -4,605 0,673 -5,620 -10,970 -9,094 3,548 5,849 -3,601 9,419 8,652 4,716 13,343 12,102 6,351
6,794 0,853 3,029 -8,345 -1,543 -2,402 7,097 8,601 2,401 10,989 10,555 6,637 14,036 12,979 8,820
-7,813 -19,102 -8,918 -21,458 -12,855 -12,010 5,407 3,268 -1,029 8,547 7,094 2,969 12,303 11,225 7,938
-13,078 -25,242 -13,966 -10,218 -9,084 -12,010 6,252 4,817 -3,601 9,245 6,056 1,921 13,690 11,927 7,056
-20,721 -33,429 -17,331 -6,812 -8,741 -17,329 7,097 5,677 -2,401 10,640 7,094 2,271 16,982 13,681 6,703
-18,174 -28,994 -21,706 -9,707 -12,170 -18,874 6,590 8,429 2,401 13,257 9,517 5,065 20,621 15,785 6,880
-3,906 -8,869 -9,255 -4,598 -0,857 -9,952 9,124 14,966 9,089 17,269 14,535 9,955 23,914 18,416 8,468
-11,040 -9,210 -4,880 -8,685 -8,399 -11,153 8,617 14,450 9,604 17,269 15,919 10,130 23,047 17,364 7,056
-11,889 -1,876 0,000 1,022 -2,057 -2,745 11,997 17,374 7,889 18,664 16,092 8,733 21,834 14,382 3,352
-14,777 -5,628 -1,851 1,533 -2,057 -1,373 13,349 15,654 2,572 18,315 14,189 5,938 21,314 12,278 -0,529
-12,569 -7,846 -6,899 2,725 -5,313 -1,544 14,193 16,514 1,715 20,932 14,708 8,034 25,473 15,785 1,588
-2,038 -2,217 -3,365 10,048 5,313 2,745 19,431 22,019 7,374 25,816 20,072 14,846 30,845 21,223 8,115
-3,057 -9,551 -10,264 1,873 -2,914 -4,118 19,431 20,643 10,804 25,467 21,456 17,640 31,885 22,801 11,290
7,134 3,070 -5,721 5,279 3,942 0,343 20,783 24,944 15,435 26,863 23,359 21,133 32,752 25,081 14,465
2,718 1,876 -1,346 4,598 6,685 -0,343 23,656 27,352 17,836 27,909 26,301 23,753 33,618 27,362 18,876
-9,681 -8,528 -4,375 9,537 4,628 -5,491 25,683 27,868 15,606 26,165 26,647 22,530 30,326 25,958 19,934
-14,437 -12,451 -3,870 18,392 14,569 -8,236 27,711 30,276 17,150 24,944 27,166 23,054 26,513 24,906 20,287
-19,023 -21,319 -11,442 9,196 6,513 -12,354 23,487 27,696 17,493 21,804 26,993 22,880 23,394 24,380 22,227
-4,246 -6,652 -7,909 9,877 14,741 2,231 20,445 29,416 18,007 20,757 28,204 23,928 20,968 24,029 24,344
-3,906 -5,628 -5,721 -0,681 14,226 5,147 15,376 25,804 14,234 17,618 26,647 21,657 17,502 21,924 23,638
-8,662 -10,233 -8,413 -3,065 6,513 6,520 11,321 23,395 8,918 16,746 24,398 20,435 17,675 21,749 22,580
-4,416 -5,458 -4,711 8,345 17,483 15,099 17,066 28,900 11,833 21,804 27,339 24,277 22,354 24,555 24,168
-12,569 -13,644 -12,452 8,515 14,741 9,780 23,149 30,620 16,635 25,293 29,935 27,421 25,473 26,485 25,755
-8,322 -4,264 -8,918 20,947 26,910 16,986 30,245 36,641 23,838 29,305 32,876 31,962 27,380 28,765 27,696
-11,719 -9,039 -9,086 19,414 27,767 12,010 30,414 34,061 25,210 27,037 31,492 30,564 24,780 26,660 27,519
-13,418 -16,032 -16,995 13,794 17,654 5,834 23,487 27,696 22,637 20,932 24,571 25,674 18,542 20,170 22,051
-9,172 -12,451 -16,322 14,305 21,425 10,638 20,276 25,804 25,038 17,269 19,553 22,705 13,863 15,084 16,229
-16,135 -21,661 -22,211 5,450 7,713 -1,373 16,728 20,127 21,266 13,606 14,708 17,465 10,917 10,874 11,114
-7,134 -11,086 -17,668 11,240 10,113 -5,491 17,066 21,159 19,894 13,780 13,323 15,719 11,090 8,244 6,174
-9,681 -12,280 -14,471 7,834 7,199 -13,040 15,207 16,686 15,092 12,036 11,074 10,829 10,224 5,613 1,411
-14,607 -16,885 -16,154 1,873 -1,714 -10,809 11,152 9,805 3,944 8,896 6,921 4,716 8,491 3,508 -1,235
-14,607 -15,862 -14,976 -1,362 -0,171 -6,692 6,759 3,957 -4,116 4,535 3,461 0,349 5,545 1,403 -2,823
-26,156 -33,258 -27,259 -17,030 -16,797 -18,187 -2,704 -6,021 -11,490 -1,570 -1,730 -3,668 1,906 -0,702 -4,939
-22,759 -30,871 -28,437 -15,668 -14,912 -16,300 -4,731 -4,301 -8,918 0,000 0,173 0,175 3,812 2,806 -1,411
-28,874 -34,282 -31,298 -22,650 -17,140 -23,678 -5,238 -4,473 -3,601 0,698 3,288 4,017 4,332 5,086 2,999
-31,422 -32,747 -36,009 -22,480 -24,168 -26,766 -6,083 -4,129 0,171 0,872 4,672 8,209 3,986 5,963 5,292
-28,025 -22,684 -30,624 -11,580 -13,369 -17,158 -2,535 -0,860 4,630 2,791 7,267 10,654 4,679 6,840 6,527
-37,366 -31,553 -34,158 -15,668 -20,911 -17,673 -4,731 -4,645 2,229 1,570 6,056 7,335 5,372 6,840 5,645
-30,063 -23,366 -27,596 -10,048 -14,226 -12,010 -4,731 -2,064 4,459 4,361 7,267 9,257 9,877 11,050 9,350
-30,742 -26,777 -26,754 -14,986 -16,112 -21,104 -5,914 -4,989 1,200 4,361 8,133 9,082 11,437 13,856 14,289
-29,553 -30,188 -28,942 -22,650 -23,482 -25,737 -9,800 -8,429 -4,459 3,140 6,575 7,335 11,264 13,856 15,171
-18,853 -22,172 -20,360 -23,501 -15,769 -18,702 -11,659 -7,913 -5,145 3,489 5,883 8,733 12,130 14,207 14,995
-24,118 -31,553 -25,240 -30,824 -23,139 -21,962 -13,518 -9,461 -7,031 3,489 5,018 10,130 11,957 14,558 16,053
-25,817 -31,723 -32,644 -19,755 -15,769 -12,525 -6,759 -1,720 -3,944 8,896 9,344 14,671 15,423 18,241 19,758
-35,328 -37,693 -38,533 -15,668 -14,398 -6,863 -1,014 0,860 0,000 11,338 13,150 15,544 18,715 20,346 22,404
-31,931 -29,506 -32,307 -10,218 -15,940 -0,515 0,507 1,032 2,058 10,466 11,939 11,702 18,195 18,066 19,052
-18,683 -10,745 -15,649 -3,065 -2,057 8,064 1,690 3,268 6,002 9,594 10,901 9,781 15,943 15,259 15,524
-20,382 -12,962 -11,610 -13,283 -8,570 2,917 -2,704 -1,376 6,002 4,535 7,267 5,240 8,491 7,893 9,702
-9,681 -0,682 1,346 -10,218 -2,742 11,839 -5,407 -2,924 6,002 -0,523 2,076 1,048 -0,866 -1,403 -0,882
-10,361 -2,558 6,226 -13,794 -2,400 12,354 -7,942 -5,505 5,831 -4,710 -2,076 -1,921 -5,892 -6,665 -8,820
-18,853 -11,939 -5,216 -19,414 -8,741 7,035 -11,659 -5,333 6,174 -4,884 -1,903 -0,175 -3,639 -4,034 -7,585
-20,891 -12,962 -9,928 -20,777 -2,742 4,633 -13,349 -3,957 4,116 -4,710 0,173 1,048 -1,386 -0,877 -2,646
-28,364 -23,196 -16,322 -33,038 -13,541 -3,088 -19,431 -10,321 -3,087 -10,292 -3,634 -4,192 -4,679 -3,157 -2,999
-17,664 -11,598 -6,899 -28,610 -7,542 5,662 -22,811 -10,149 -3,258 -14,303 -7,440 -6,986 -8,491 -5,788 -5,116
-21,231 -15,009 -5,216 -28,270 -5,828 5,491 -23,487 -7,397 1,029 -15,001 -7,613 -4,890 -8,664 -4,736 -4,057
-32,441 -24,048 -15,649 -27,929 -9,427 2,574 -19,769 -1,204 6,517 -11,164 -3,634 0,349 -5,545 -0,526 1,058
-33,120 -21,490 -16,490 -21,117 0,857 3,088 -11,490 6,365 10,976 -4,884 2,595 5,764 -0,520 4,385 6,703
-47,897 -36,158 -26,418 -28,781 -9,084 -7,893 -9,800 3,268 8,746 -3,663 3,980 6,462 2,599 6,314 9,702
-47,217 -33,941 -29,110 -27,418 -7,199 -1,887 -10,476 1,892 6,002 -3,314 3,115 6,986 6,238 8,068 11,290
-49,765 -39,739 -35,168 -32,357 -12,684 -3,260 -15,545 -4,989 -1,200 -6,454 -0,173 2,271 6,412 7,191 10,408
-57,408 -47,073 -45,600 -38,317 -23,311 -6,863 -20,783 -11,354 -9,604 -9,943 -4,326 -2,794 3,986 5,262 7,938
-64,202 -47,926 -48,461 -36,104 -20,568 -5,319 -20,952 -10,838 -9,775 -8,896 -3,980 -2,794 4,332 6,139 7,762
-78,299 -61,741 -56,706 -43,937 -31,195 -16,300 -21,628 -12,902 -9,775 -6,977 -2,249 -1,572 6,585 9,121 10,584
-67,089 -53,554 -55,528 -36,955 -24,682 -12,868 -19,262 -9,805 -7,374 -3,489 0,692 2,096 9,704 12,278 14,289
-57,238 -52,190 -54,182 -37,296 -23,996 -11,153 -18,756 -10,838 -6,174 -3,314 0,346 1,921 8,318 8,945 11,643
-49,086 -49,120 -50,816 -38,999 -29,138 -9,608 -19,600 -12,042 -4,802 -4,535 -2,422 0,349 3,986 2,280 4,410
-37,876 -37,181 -39,038 -33,719 -18,511 -7,549 -17,066 -9,117 -0,343 -4,710 -3,115 0,175 1,213 -2,280 -1,411
-44,160 -43,833 -39,038 -42,234 -25,025 -19,732 -18,587 -12,386 -1,372 -7,501 -5,364 -3,842 -1,733 -6,139 -6,527
-42,801 -36,328 -33,822 -38,147 -19,368 -18,359 -17,573 -10,494 -2,058 -6,977 -5,710 -4,366 -1,906 -6,139 -8,820
-47,727 -37,693 -31,802 -37,466 -18,854 -20,761 -16,052 -10,666 -1,372 -5,407 -3,980 -2,620 0,000 -1,754 -5,469
-52,143 -40,081 -37,692 -37,466 -24,510 -16,472 -16,390 -11,182 -3,087 -4,535 -2,076 -1,048 3,986 5,086 1,411
-46,878 -33,599 -36,009 -31,846 -17,654 -0,858 -16,052 -8,773 -1,715 -4,710 0,692 0,349 7,278 10,699 7,056
-50,784 -42,809 -42,235 -40,531 -29,138 0,515 -22,473 -13,074 -3,944 -9,768 -0,692 -3,144 5,719 10,348 6,703
-45,179 -38,034 -41,225 -37,466 -25,539 3,946 -25,176 -10,666 -7,717 -10,117 -0,692 -3,144 6,585 11,401 6,703
-52,143 -44,685 -43,581 -42,234 -25,196 -7,549 -24,501 -9,633 -8,403 -9,245 1,211 -2,271 7,798 12,628 8,820
-57,408 -49,290 -46,442 -46,832 -29,310 -16,815 -23,318 -7,569 -4,973 -7,849 2,249 -0,175 8,145 12,804 9,526
-49,935 -39,910 -35,672 -37,125 -17,140 -12,868 -19,262 -3,096 2,058 -5,407 4,153 1,747 8,318 12,453 9,526
-53,502 -44,685 -34,326 -37,977 -22,454 -16,643 -18,925 -3,785 2,572 -6,977 2,422 -0,524 5,545 8,594 6,174
-45,179 -35,646 -29,783 -29,462 -13,884 -8,407 -15,883 0,344 4,287 -7,501 1,384 -1,397 4,506 5,613 2,646
-48,406 -40,081 -31,802 -32,016 -13,027 -5,491 -18,418 -2,580 1,543 -12,036 -2,942 -6,288 2,946 2,105 -1,588
-52,482 -42,980 -34,326 -33,890 -18,169 -7,035 -23,318 -6,021 -3,944 -14,827 -7,786 -9,955 5,199 1,754 -4,057
-48,746 -37,522 -32,307 -28,951 -10,627 -4,118 -22,811 -4,473 -4,802 -11,861 -7,613 -7,685 11,610 6,314 -0,706
-56,219 -46,220 -44,086 -34,911 -18,683 -11,153 -21,628 -5,849 -4,802 -9,419 -6,056 -4,541 15,423 10,348 5,645
-53,502 -40,251 -45,768 -30,484 -12,341 -7,378 -18,756 -2,408 0,000 -7,326 -4,672 -0,175 14,036 10,173 8,820
-58,087 -47,244 -46,105 -35,593 -13,369 -13,040 -17,573 -3,613 3,773 -7,501 -5,191 0,000 9,877 6,840 7,762
-59,956 -52,702 -50,143 -41,213 -20,740 -16,300 -16,728 -6,365 2,058 -8,373 -7,267 -1,223 5,372 3,157 5,116
-59,616 -51,337 -49,302 -34,911 -14,398 -14,413 -14,362 -7,397 0,171 -8,547 -8,825 -2,271 2,079 0,526 3,528
-72,864 -67,540 -57,547 -40,872 -24,682 -24,021 -16,897 -13,762 -6,860 -9,943 -11,766 -6,986 0,000 -1,579 1,588
-68,108 -59,694 -53,677 -36,614 -21,939 -17,673 -17,404 -13,418 -9,432 -8,373 -11,939 -7,859 -1,040 -2,631 0,706
-64,372 -54,578 -47,115 -39,339 -23,653 -17,158 -18,925 -16,514 -10,461 -10,117 -12,458 -9,082 -5,025 -5,262 -0,529
-59,786 -51,167 -45,937 -42,234 -31,195 -18,530 -25,007 -20,471 -13,720 -14,478 -15,227 -10,305 -11,437 -9,647 -2,823
-51,124 -41,957 -42,067 -38,658 -23,653 -13,726 -27,880 -22,019 -12,691 -17,792 -16,438 -9,257 -16,982 -13,330 -4,939
-60,126 -52,702 -52,667 -52,452 -36,851 -20,418 -34,470 -30,620 -17,321 -23,200 -20,245 -12,400 -21,141 -16,136 -7,585
-56,898 -47,244 -54,855 -50,920 -33,423 -14,241 -37,004 -29,760 -16,807 -22,327 -19,899 -10,479 -17,329 -11,751 -5,821
-62,334 -51,508 -54,518 -52,112 -32,224 -14,756 -38,863 -29,760 -15,778 -20,932 -16,784 -8,733 -10,571 -5,437 -1,058
-67,259 -56,113 -53,677 -54,496 -37,708 -16,128 -41,228 -31,136 -18,522 -21,281 -16,265 -11,178 -8,145 -3,683 0,529
-63,692 -51,849 -45,600 -49,898 -32,566 -13,555 -38,863 -29,588 -21,266 -21,106 -16,784 -13,099 -9,531 -5,437 -1,588
-70,826 -59,012 -45,264 -53,474 -40,451 -24,879 -37,342 -29,760 -20,065 -21,804 -16,265 -11,876 -11,784 -6,840 -2,646
-64,202 -50,655 -42,067 -45,811 -32,909 -25,394 -34,639 -25,288 -13,377 -20,409 -13,670 -8,558 -11,957 -5,963 -1,764
-62,503 -52,019 -46,273 -44,959 -32,395 -27,796 -35,146 -25,976 -13,891 -20,409 -13,323 -10,479 -11,437 -5,613 -1,588
-56,729 -50,825 -53,172 -45,981 -37,194 -28,825 -37,342 -27,008 -16,635 -21,106 -14,708 -12,575 -12,650 -7,893 -4,587
-43,650 -39,228 -47,788 -43,767 -27,082 -21,104 -36,497 -25,460 -15,949 -21,455 -15,400 -13,099 -14,383 -10,874 -8,291
-48,236 -44,515 -47,451 -52,623 -34,452 -18,016 -38,187 -29,588 -17,321 -23,897 -19,034 -16,767 -17,675 -15,084 -12,878
-43,990 -35,817 -39,374 -43,767 -27,939 0,858 -33,963 -26,148 -12,348 -21,630 -19,726 -15,370 -18,715 -16,838 -15,524
-46,708 -38,546 -35,672 -40,020 -26,224 5,319 -27,711 -24,600 -10,633 -18,839 -18,341 -12,400 -16,809 -14,558 -13,936
-44,839 -38,546 -32,475 -37,125 -28,110 1,029 -22,980 -21,675 -10,118 -15,350 -15,400 -8,733 -12,303 -9,822 -9,173
-37,196 -27,459 -21,033 -32,016 -16,455 2,574 -18,587 -15,482 -6,002 -11,164 -11,247 -5,589 -7,278 -5,788 -5,292
-42,462 -30,871 -21,033 -36,104 -22,454 -8,064 -19,094 -15,998 -7,889 -10,292 -10,209 -6,986 -4,506 -4,385 -4,763
-33,799 -21,149 -18,173 -24,864 -16,283 -16,472 -17,066 -13,074 -10,290 -8,547 -9,344 -7,859 -3,812 -4,209 -5,998
-32,950 -23,878 -22,379 -20,266 -15,940 -29,683 -14,700 -13,246 -11,490 -8,722 -9,690 -9,955 -6,065 -6,314 -8,291
-32,780 -26,607 -29,783 -17,371 -19,026 -29,168 -13,518 -12,730 -10,290 -8,722 -10,036 -10,305 -7,625 -7,367 -9,350
-24,628 -20,467 -24,399 -14,986 -8,056 -14,069 -10,645 -8,601 -6,860 -6,105 -7,613 -6,637 -5,545 -3,683 -5,116
-29,553 -30,018 -27,764 -24,183 -14,055 -9,608 -9,124 -9,117 -8,918 -3,489 -4,845 -4,192 -0,693 2,105 1,764
-27,685 -25,583 -29,110 -24,012 -8,570 -0,858 -6,421 -5,333 -10,290 0,872 -0,865 -1,048 6,065 8,419 9,173
-38,895 -31,723 -34,831 -32,698 -9,941 -3,603 -7,604 -6,193 -9,432 0,523 0,346 -1,397 6,932 9,296 12,701
-49,086 -38,034 -40,047 -33,208 -15,940 -4,633 -9,969 -6,881 -8,060 -1,744 -1,211 -2,096 2,773 5,437 10,584
-48,916 -35,817 -36,682 -21,458 -8,399 1,373 -9,969 -4,473 -5,316 -2,268 -0,865 -0,524 0,693 3,683 8,291
-54,011 -45,709 -39,543 -22,480 -15,598 -3,946 -13,180 -6,365 -0,343 -4,186 -0,346 1,747 0,347 4,209 9,526
-43,820 -35,987 -34,326 -18,222 -10,284 -2,745 -16,052 -5,677 2,744 -5,407 -0,519 3,318 0,520 2,982 8,468
-40,423 -33,429 -33,317 -24,864 -11,827 -10,981 -19,769 -9,289 1,372 -6,977 -1,730 2,096 0,693 1,052 4,234
-37,026 -31,723 -33,485 -32,187 -19,026 -17,158 -24,501 -12,730 -2,572 -8,198 -3,634 -0,873 0,000 -0,526 0,706
-27,855 -22,002 -25,240 -27,248 -10,970 -13,040 -25,176 -10,149 -3,087 -7,675 -2,769 -1,048 0,173 -0,351 -0,176
-33,969 -30,359 -29,951 -31,846 -16,797 -15,957 -26,359 -9,633 -5,316 -9,419 -2,076 -0,873 -1,906 -1,052 -0,706
-30,742 -26,095 -27,259 -23,842 -7,713 -1,887 -23,487 -2,236 -1,715 -8,722 1,384 3,842 -3,639 -0,351 1,235
-32,950 -27,118 -21,202 -22,990 -3,942 12,010 -23,825 -0,516 4,116 -10,989 2,249 4,890 -6,238 -2,280 0,706
-32,271 -23,537 -14,807 -21,117 -5,485 23,849 -26,359 -1,548 9,604 -12,734 0,000 3,668 -6,758 -4,209 -3,175
-24,628 -13,474 -5,553 -16,349 4,285 28,139 -23,656 -0,860 13,720 -9,768 0,346 4,017 -2,773 -2,631 -4,410
-31,082 -22,684 -11,274 -25,886 -5,142 16,643 -23,487 -7,741 11,319 -9,070 -1,211 1,397 -1,733 -2,982 -5,469
-25,817 -15,862 -8,750 -21,458 -2,742 16,643 -20,614 -8,429 9,432 -6,280 -2,249 1,572 -0,866 -2,105 -5,116
-29,723 -20,808 -14,976 -25,715 -5,313 3,260 -16,728 -9,977 7,717 -3,489 -1,557 2,445 1,040 1,052 -1,058
-36,177 -28,312 -31,298 -29,632 -14,398 -10,123 -13,855 -11,526 4,802 -1,395 -0,865 3,318 1,386 2,982 3,705
-34,139 -22,854 -32,307 -21,117 -7,713 -11,324 -9,293 -11,526 1,543 -0,872 -1,384 0,699 -0,347 0,702 2,823
-40,084 -28,483 -32,812 -20,266 -15,940 -15,785 -9,124 -16,514 -5,488 -4,186 -6,229 -6,637 -3,119 -3,859 -2,999
-29,214 -16,373 -20,192 -9,707 -8,570 1,201 -8,111 -15,482 -9,261 -5,756 -10,209 -11,003 -5,199 -7,542 -8,820
-27,855 -17,226 -12,452 -11,240 -7,027 12,010 -9,124 -17,547 -15,435 -8,722 -14,362 -16,767 -7,625 -10,699 -13,760
-27,175 -20,296 -13,630 -14,135 -11,655 15,099 -11,659 -19,095 -19,894 -11,164 -17,649 -19,911 -9,184 -11,751 -14,818
-20,721 -16,544 -13,966 -11,069 -4,285 10,638 -13,180 -19,267 -19,208 -14,129 -20,072 -21,832 -12,130 -13,330 -15,524
-30,063 -28,142 -25,913 -21,798 -16,455 -12,868 -20,445 -27,696 -23,666 -21,630 -26,647 -28,469 -18,369 -18,592 -19,228
-30,233 -23,537 -25,576 -24,523 -17,312 -17,844 -25,852 -30,276 -27,954 -26,165 -31,319 -32,136 -24,087 -23,503 -23,286
-36,517 -29,336 -26,418 -35,593 -21,768 -22,820 -29,063 -31,997 -32,756 -27,735 -32,184 -32,486 -25,300 -24,731 -25,403
-40,593 -35,305 -35,504 -43,256 -28,967 -28,482 -29,063 -29,072 -33,785 -24,769 -28,031 -27,071 -20,101 -19,469 -22,051
-33,290 -29,165 -37,692 -36,955 -18,340 -19,903 -23,487 -20,127 -24,695 -19,013 -19,553 -17,989 -12,303 -12,453 -14,995
-35,158 -33,429 -41,057 -36,274 -22,796 -17,501 -23,318 -17,891 -16,121 -17,967 -14,535 -12,924 -9,011 -9,647 -11,643
-28,194 -23,196 -30,120 -23,672 -14,398 -6,520 -24,332 -13,590 -7,203 -18,490 -12,112 -8,209 -10,224 -10,524 -11,643
-33,290 -24,901 -20,697 -21,798 -11,313 -3,088 -27,880 -13,590 -0,343 -22,327 -12,804 -5,589 -12,997 -12,278 -13,054
1,529 -4,946 -13,630 6,301 4,114 -13,383 8,786 11,698 3,430 2,268 0,519 -7,510 -6,585 -10,699 -20,287
12,569 11,598 3,870 12,943 14,226 0,686 15,376 16,858 6,174 7,501 3,807 -4,192 -2,253 -6,139 -15,347
14,097 13,986 15,649 14,646 12,855 6,348 18,418 16,170 7,717 8,373 4,845 -3,318 -0,693 -4,034 -12,172
12,908 13,815 20,360 13,794 5,313 10,981 15,714 12,214 2,915 6,280 2,422 -5,414 0,520 -2,456 -11,290
13,418 17,397 26,250 16,349 11,827 17,673 13,011 9,117 -4,116 4,361 -0,173 -7,859 1,733 -0,702 -9,702
1,189 4,093 12,957 8,345 -2,400 5,147 5,576 1,032 -11,319 -1,047 -5,883 -12,924 -1,733 -3,859 -11,466
4,586 5,799 7,235 12,091 3,771 -1,029 3,548 -0,172 -12,519 -3,663 -9,517 -15,719 -5,719 -7,893 -14,289
1,359 -3,070 -6,394 6,131 0,343 -11,324 0,507 -3,957 -15,435 -6,628 -13,323 -17,640 -9,877 -12,102 -18,346
-1,019 -4,264 -11,779 3,747 -3,085 -5,147 0,000 -2,752 -11,490 -6,280 -12,631 -12,400 -10,744 -12,628 -18,699
1,359 1,876 -2,187 8,685 9,770 3,946 3,548 1,892 0,171 -4,361 -8,133 -5,065 -9,184 -10,524 -15,524
-2,718 -7,334 -5,216 1,873 0,514 -2,917 2,535 1,548 6,517 -4,186 -6,921 -2,096 -6,932 -8,068 -12,878
4,416 2,217 6,731 11,410 10,970 5,834 5,407 7,397 12,519 -0,174 -2,249 2,445 -2,946 -4,209 -8,291
0,000 1,364 13,798 11,921 10,798 6,520 6,421 8,257 11,319 1,570 0,865 3,668 -1,560 -3,332 -6,527
3,227 5,458 17,163 9,366 6,170 8,922 6,590 9,117 7,031 3,140 2,422 4,017 -1,213 -3,859 -6,703
12,908 15,691 23,557 9,196 14,569 18,530 7,097 10,149 6,517 2,965 3,634 3,842 -4,159 -6,139 -7,762
10,870 8,528 13,125 -1,022 2,228 16,643 2,028 6,021 3,944 0,349 1,384 1,921 -5,719 -7,016 -7,938
16,645 14,327 8,582 4,768 11,484 20,933 3,210 9,117 8,403 1,744 2,942 5,065 -3,812 -4,560 -3,881
7,473 3,923 -3,870 3,406 8,570 10,123 2,197 7,741 11,147 0,174 2,769 6,113 -3,986 -3,157 0,000
3,567 -1,876 -11,442 9,366 4,114 4,804 2,197 8,945 14,577 -0,174 2,422 7,859 -4,332 -2,280 2,470
5,945 2,558 -3,534 18,563 13,884 5,491 5,069 9,977 13,891 -1,570 3,115 7,685 -7,105 -3,859 1,940
-7,473 -8,869 -7,572 10,388 -0,857 -3,775 -0,169 3,440 3,258 -6,628 -1,557 2,620 -13,170 -9,121 -3,528
-5,605 -0,682 2,861 11,921 5,656 1,544 0,000 4,989 -0,343 -6,803 -2,422 1,572 -15,769 -11,751 -7,762
-9,172 -3,241 8,582 1,873 1,714 -8,579 -1,690 0,688 -4,287 -9,943 -5,537 -3,493 -19,062 -15,785 -12,172
-7,983 -3,923 8,582 -8,004 -7,713 -16,643 -6,421 -5,161 -10,118 -13,955 -11,593 -11,003 -22,874 -20,697 -17,641
2,208 2,217 10,601 -8,004 -2,228 -10,638 -7,604 -6,709 -10,461 -14,129 -15,054 -14,147 -20,795 -20,346 -19,405
1,359 -6,311 -4,038 -10,899 -14,398 -9,780 -9,631 -11,182 -10,804 -14,652 -17,476 -15,894 -18,715 -19,820 -18,523
9,851 1,706 -8,413 1,022 -6,513 0,686 -7,266 -9,977 -10,804 -14,827 -17,995 -15,370 -20,448 -20,697 -18,699
2,208 -4,434 -12,788 -0,341 -10,284 -2,745 -9,124 -13,934 -15,435 -18,315 -20,764 -17,465 -24,260 -22,450 -19,934
-8,153 -10,233 -14,639 -2,895 -18,511 -12,010 -12,166 -16,170 -18,350 -19,188 -22,321 -17,116 -24,607 -22,100 -19,758
-7,134 -6,311 -7,067 1,362 -9,941 -15,785 -8,955 -13,246 -15,778 -16,048 -19,726 -13,798 -21,834 -19,820 -18,699
-13,588 -13,986 -9,255 -1,703 -18,683 -20,933 -4,393 -10,321 -13,377 -11,861 -16,265 -9,082 -18,022 -16,487 -16,582
-3,906 -1,706 4,207 4,428 -3,771 -6,348 5,745 1,376 -2,401 -3,663 -7,440 -0,175 -11,784 -10,348 -10,937
-1,359 -0,171 11,947 -4,087 1,028 -1,373 9,631 7,741 7,546 0,174 -0,865 4,366 -8,491 -7,016 -6,703
0,679 1,876 10,433 -6,812 0,343 3,775 10,476 11,870 14,063 2,965 3,288 6,812 -6,758 -5,086 -4,587
7,983 8,869 9,928 0,681 11,313 9,952 11,828 14,106 14,920 4,186 6,229 7,685 -6,065 -3,859 -2,293
2,038 -3,070 -3,702 -3,576 -3,428 -2,231 6,083 7,225 6,517 0,698 2,769 2,969 -7,278 -4,911 -2,823
6,284 2,899 -0,841 6,301 0,514 -2,574 7,266 6,881 2,572 2,616 2,422 3,144 -3,639 -2,456 -1,235
2,548 -2,729 -2,187 6,301 -4,456 -8,407 6,928 2,580 -2,058 2,442 1,903 2,969 -1,213 -1,403 0,176
1,868 -6,481 -7,067 9,877 -10,284 -7,893 6,759 2,236 -3,258 2,965 1,384 4,017 -1,733 -1,754 -0,529
2,208 -2,047 -3,534 15,838 3,257 -0,172 10,814 7,225 1,715 5,582 3,807 6,113 -1,733 -1,052 0,176
-9,002 -9,892 -8,582 4,768 -3,599 -4,289 9,124 7,397 3,773 6,105 4,499 6,462 0,000 1,228 1,235
-1,189 0,682 0,168 4,939 6,856 4,804 9,462 11,182 8,060 7,849 7,440 6,986 2,946 4,385 4,234
-1,019 -0,853 2,861 -4,257 4,285 2,574 6,083 8,085 3,601 5,407 5,883 2,096 0,693 2,456 2,999
-1,019 0,171 2,187 -6,812 -1,885 -2,574 2,535 5,505 -2,915 2,965 2,769 -0,699 -1,213 1,052 0,882
5,945 8,698 10,433 0,851 7,199 -3,603 2,535 4,989 -4,116 0,872 2,249 -0,873 -1,733 0,526 1,058
2,378 0,682 7,235 -0,511 -6,513 -12,868 -5,069 -3,096 -10,461 -5,931 -3,115 -5,240 -6,585 -4,736 -2,823
7,473 5,969 9,928 13,283 0,514 -1,887 -6,421 -3,096 -7,546 -7,675 -5,537 -5,938 -9,011 -8,068 -6,351
-1,698 -3,241 1,346 10,729 -3,085 0,000 -6,928 -7,225 -7,889 -10,640 -9,171 -9,082 -11,957 -11,927 -10,408
-4,416 -7,675 -5,721 1,192 -9,941 -1,887 -8,448 -9,461 -11,147 -12,908 -13,323 -11,353 -14,210 -13,856 -12,525
3,057 -1,876 0,000 -5,620 -0,857 -1,887 -6,590 -7,569 -8,232 -13,431 -14,189 -11,353 -15,076 -14,032 -12,348
-4,756 -12,109 -7,909 -20,606 -12,170 -12,868 -8,448 -9,805 -6,860 -15,176 -16,611 -12,750 -18,195 -16,487 -14,642
-0,679 -5,117 -5,216 -16,008 -3,428 -10,295 -5,069 -5,333 -3,601 -12,210 -14,881 -9,431 -18,888 -16,838 -16,053
-3,906 -6,652 -7,235 -12,432 -4,971 -12,868 -3,210 -4,645 -2,572 -11,338 -13,496 -7,510 -18,369 -16,312 -16,406
-3,397 -4,946 -8,918 -5,620 -9,770 -8,236 -1,690 -2,580 -1,715 -8,896 -10,901 -4,890 -14,730 -11,927 -13,936
-1,698 1,535 1,851 7,834 0,857 2,059 3,379 2,580 2,572 -4,710 -5,191 -0,873 -11,090 -8,068 -9,350
-13,758 -8,357 0,505 8,345 -9,941 -1,544 2,535 1,548 2,058 -4,361 -3,634 -0,524 -11,090 -8,594 -9,879
-5,945 1,023 7,740 15,497 0,000 4,976 5,745 7,569 6,345 0,872 1,730 4,192 -6,412 -3,859 -7,056
-3,737 -1,364 7,572 7,323 -0,343 6,520 5,407 7,913 9,432 2,616 6,575 6,637 -4,506 -1,579 -2,823
-1,698 -4,605 1,514 -3,065 -6,685 9,094 2,197 7,397 10,461 2,268 7,786 6,986 -6,412 -3,508 -3,528
6,114 0,853 2,692 -5,450 2,742 8,407 3,548 10,149 14,063 3,489 10,382 8,907 -6,412 -3,683 -2,646
-2,038 -8,187 -6,226 -18,392 -9,427 -6,348 -1,014 4,989 9,947 0,349 7,959 6,462 -7,971 -5,086 -3,175
1,359 -0,682 0,505 -13,454 -2,914 1,029 -2,704 5,677 9,947 0,349 6,921 6,462 -6,412 -3,683 -2,117
-0,340 -4,605 0,168 -11,240 -6,342 0,343 -5,069 1,376 4,116 -0,174 4,499 3,144 -3,466 -1,754 -0,882
3,737 -2,899 -1,178 -5,279 -11,313 -1,373 -3,717 1,032 -2,915 5,059 4,153 3,318 6,065 5,963 3,175
12,229 5,287 8,413 2,554 1,028 0,515 4,731 6,021 -2,401 14,129 10,382 6,637 18,022 16,662 12,525
0,679 -9,039 -1,851 -6,301 -11,313 -9,265 6,759 3,440 -8,403 16,397 12,458 4,541 21,141 19,469 16,406
1,868 -4,605 -1,010 -3,747 -5,999 -3,088 8,111 4,129 -10,804 15,001 12,458 3,493 17,849 17,189 15,347
1,189 -3,582 3,365 -5,109 -7,713 -2,402 3,717 -0,688 -10,804 8,722 8,133 1,223 12,130 12,278 10,584
5,265 3,582 12,788 -2,725 -11,484 2,231 -3,210 -6,537 -10,118 2,093 2,422 -1,048 6,758 7,717 6,351
17,154 20,978 34,495 1,362 -1,714 13,726 -8,955 -12,730 -9,947 -4,710 -3,634 -5,589 0,000 1,403 1,235
20,382 23,366 41,730 -9,707 -14,569 11,496 -19,094 -23,739 -17,321 -13,431 -13,323 -13,099 -7,971 -6,314 -7,409
40,763 44,003 58,052 -2,895 -3,085 20,761 -19,262 -21,675 -16,635 -13,780 -15,400 -12,226 -10,571 -8,770 -11,290
56,219 56,624 71,345 2,554 2,742 22,992 -17,235 -18,923 -13,034 -12,559 -14,535 -9,955 -10,917 -9,296 -12,172
86,112 85,107 97,426 21,628 14,055 40,836 -10,476 -9,289 -3,430 -5,407 -8,998 -2,096 -5,025 -4,385 -8,644
126,875 126,552 144,877 50,238 46,450 72,578 3,548 5,161 15,092 4,710 2,422 11,003 6,238 5,788 1,235
150,823 147,189 177,858 57,732 51,421 83,559 6,590 4,645 23,495 2,791 4,845 13,274 4,679 4,385 5,645
176,131 174,478 213,530 68,631 67,875 89,392 5,407 3,785 26,410 -2,442 1,211 12,575 -3,466 -1,929 2,470
174,432 174,819 224,804 60,967 67,704 78,754 0,000 -2,408 23,838 -8,722 -3,807 9,606 -9,531 -6,490 -0,353
161,014 163,733 213,698 53,474 57,934 76,524 -6,083 -6,881 22,637 -12,559 -7,267 7,161 -11,784 -8,068 -1,235
149,295 151,965 194,179 49,898 58,105 80,299 -10,138 -9,633 19,722 -13,082 -8,306 4,716 -9,877 -5,613 -0,176
137,406 133,374 162,377 41,042 42,165 74,293 -11,828 -10,321 12,519 -7,849 -6,921 4,716 -0,347 2,280 2,823
142,331 137,126 154,468 51,260 53,992 82,186 -1,521 0,516 16,292 5,059 3,634 12,226 14,383 15,610 12,878
128,404 123,994 147,401 46,832 49,878 72,234 4,055 3,785 15,263 11,338 10,382 13,099 22,528 21,924 19,052
111,589 111,714 139,325 39,850 35,823 55,248 4,731 4,989 10,290 12,734 12,112 10,654 22,354 20,346 17,464
98,511 106,597 139,829 38,317 35,823 42,895 5,745 6,709 9,261 9,768 11,074 7,335 12,477 11,050 9,702
72,864 87,836 127,546 28,270 18,511 27,796 3,717 4,645 3,430 5,582 6,921 2,271 3,812 3,157 0,882
71,505 87,154 125,022 34,230 26,396 33,115 9,800 12,214 4,287 9,768 9,344 2,969 7,625 6,139 0,353
67,938 66,175 105,503 26,396 26,224 28,825 13,518 15,482 4,802 12,734 12,285 3,668 13,170 11,050 4,057
58,937 46,391 80,095 12,772 20,740 24,021 14,024 18,235 4,116 12,908 12,977 4,541 12,997 12,278 7,056
57,578 44,174 73,196 4,768 28,110 27,624 14,700 22,535 9,261 12,036 14,016 6,812 11,090 11,927 8,644
53,671 39,398 61,585 -4,939 13,712 26,766 10,983 22,535 13,891 10,815 13,670 8,733 11,957 13,155 10,761
63,862 56,965 64,446 4,598 19,026 36,718 12,673 25,632 20,408 9,768 15,227 10,829 10,051 12,278 12,348
59,106 59,524 60,912 2,725 11,141 28,654 8,279 19,439 13,548 3,314 9,863 5,938 0,866 4,560 6,174
54,521 60,377 55,864 4,939 2,057 19,388 3,717 15,138 5,488 0,698 5,883 4,017 -2,599 0,877 1,235
53,332 60,035 59,398 10,388 10,627 18,016 3,717 14,106 1,543 1,744 6,229 5,065 -0,347 2,631 1,411
37,876 38,716 51,826 -0,511 -1,543 8,750 -0,676 9,461 -3,258 1,919 5,364 5,240 3,639 6,490 3,705
34,139 35,646 56,201 1,362 5,485 9,952 1,521 13,246 1,543 6,105 8,479 8,907 9,184 11,927 8,820
19,362 23,878 50,312 -3,747 3,085 5,834 3,041 14,106 7,374 7,849 11,074 10,829 12,477 15,084 11,643
10,700 19,443 41,562 -1,533 0,343 6,692 4,900 16,514 11,833 10,466 13,843 12,924 15,596 17,364 12,348
10,700 21,319 41,394 7,153 10,970 8,750 9,293 18,751 13,377 12,559 16,784 12,226 16,289 17,013 10,761
-0,849 6,311 28,437 3,065 -1,200 2,059 7,266 14,450 7,889 11,513 15,054 9,431 16,462 17,013 8,997
5,945 12,280 31,634 10,048 7,199 16,643 9,293 18,063 10,290 15,873 17,995 12,750 22,181 22,626 13,583
10,530 10,063 32,812 7,153 7,027 22,992 11,490 18,235 12,176 18,664 20,245 13,274 27,033 26,660 17,993
15,456 7,504 23,221 6,131 3,085 22,134 13,687 18,751 12,862 20,757 20,591 11,876 30,672 29,466 20,110
16,305 6,822 12,452 7,153 11,313 15,442 16,728 18,407 12,348 21,630 20,937 8,558 31,192 29,992 20,640
-3,227 -9,892 -8,918 -4,768 -4,799 -5,662 13,518 12,730 2,915 19,711 17,303 3,493 28,939 27,362 17,817
-8,832 -5,458 -9,086 3,406 2,057 -5,662 17,235 18,063 4,802 23,548 19,553 5,589 30,499 28,414 17,641
-14,607 -8,528 -7,235 1,022 1,714 -6,863 19,600 20,987 7,546 26,688 23,013 8,209 32,925 29,817 17,993
-8,492 -3,582 1,683 1,192 -0,857 -1,201 21,121 25,116 8,918 30,700 27,166 12,226 36,044 31,922 19,228
6,794 8,357 23,221 7,663 12,170 7,893 25,514 31,653 14,063 35,235 32,876 17,989 38,297 34,202 22,404
6,964 -1,194 23,894 -4,087 1,714 2,231 24,163 30,104 14,063 33,840 33,568 18,863 36,391 32,623 23,286
12,569 2,729 22,884 -2,214 7,713 6,348 25,007 30,104 12,691 32,096 32,876 18,513 33,618 29,817 22,227
1,019 -4,946 10,264 -3,236 3,428 -1,201 22,811 25,804 8,060 28,781 29,935 17,116 29,459 26,309 20,287
-6,624 -6,652 0,841 2,044 -1,371 -3,775 22,304 25,804 6,860 28,607 28,723 18,863 28,073 25,608 20,463
-0,170 0,512 4,711 15,157 11,484 3,088 26,697 29,932 11,662 31,572 31,492 21,832 30,326 27,362 22,227
2,038 -5,628 -3,365 10,218 3,257 -1,373 25,345 28,212 14,234 32,968 32,703 23,054 33,618 29,291 23,815
15,626 5,799 0,168 13,624 13,884 4,976 26,359 31,308 20,580 36,980 36,164 26,547 38,123 32,623 27,167
11,889 3,923 1,851 10,048 14,226 5,662 27,204 29,760 21,951 37,852 36,683 26,547 39,163 33,676 29,636
4,586 2,729 2,861 8,345 10,113 8,750 27,373 28,040 23,666 35,584 34,433 25,150 36,564 32,273 29,813
0,510 5,969 7,572 9,366 16,969 12,697 25,852 25,288 22,637 31,223 31,146 21,832 31,365 28,589 27,167
-13,248 -6,822 -0,168 0,511 1,543 3,603 18,925 17,374 11,319 25,293 24,917 16,767 24,780 23,152 22,051
-10,361 -1,364 7,572 7,663 8,056 8,236 17,911 19,267 8,060 24,769 23,878 17,291 21,488 20,521 19,581
-12,229 -6,652 6,058 7,663 6,513 8,064 15,714 19,955 8,575 22,851 23,359 17,640 18,715 18,943 18,170
-12,399 -7,675 -0,673 10,388 4,285 12,697 15,545 23,395 11,833 23,025 24,571 20,784 18,195 19,644 19,758
-9,002 -1,876 0,000 15,668 17,654 16,643 21,121 29,244 19,379 24,769 28,377 25,849 17,849 21,573 23,815
-14,946 -8,869 -8,077 7,153 10,970 10,295 23,487 30,448 24,695 24,944 30,108 28,294 16,636 22,626 26,637
-3,057 -0,512 -3,365 9,537 21,939 13,383 27,035 34,921 29,326 25,642 32,876 28,993 15,076 22,626 27,343
0,340 -6,140 -8,582 0,170 19,540 8,236 24,332 31,653 25,381 23,200 30,800 24,626 12,823 20,521 24,521
2,378 -6,311 -10,264 -0,851 14,912 10,466 21,797 30,964 22,466 23,897 29,761 24,801 14,556 22,275 24,344
3,057 0,341 -0,168 8,004 26,053 13,383 23,487 33,029 26,410 25,642 31,665 27,770 17,156 25,081 27,872
-13,588 -9,722 -4,038 4,598 13,198 5,662 17,911 27,008 25,381 21,455 28,204 24,277 14,556 21,749 25,403
-17,324 -5,799 1,683 8,856 14,569 5,834 13,011 22,535 22,294 17,443 24,571 20,609 11,610 18,066 20,992
-22,759 -14,497 -1,346 -3,576 1,543 -5,147 3,210 10,838 10,633 9,943 17,303 13,099 6,412 12,979 16,406
-21,570 -17,908 -7,067 -13,624 -11,141 -5,834 -3,886 4,645 1,543 6,280 11,766 8,733 3,466 9,296 11,643
-14,607 -12,621 -5,385 -10,899 -1,885 5,319 -1,183 7,225 4,287 9,245 12,977 9,606 6,758 10,173 10,055
-17,324 -20,467 -17,500 -13,794 -10,113 -1,544 0,169 5,505 1,886 10,640 12,458 8,034 10,744 12,278 9,879
-10,870 -12,792 -17,500 -1,362 1,714 1,544 7,097 9,805 3,430 16,222 15,054 10,305 18,195 18,592 13,760
-18,853 -19,443 -23,557 -2,554 0,343 -6,692 9,124 7,053 3,944 16,746 15,573 10,305 19,408 19,995 17,288
-21,401 -23,196 -30,288 -7,834 -9,427 -15,785 4,562 1,892 1,886 12,734 11,766 8,034 14,210 15,610 15,700
-19,023 -22,343 -27,932 -9,537 -6,685 -18,187 -0,338 -2,752 0,343 6,803 8,133 5,240 6,412 9,997 13,231
-28,874 -36,328 -36,850 -21,287 -23,825 -27,796 -7,773 -10,494 -5,659 0,349 1,903 1,223 -0,866 4,560 9,526
-23,778 -26,948 -27,596 -16,008 -17,997 -20,246 -6,083 -8,085 -2,915 1,570 2,076 4,366 -1,906 4,911 9,702
-24,628 -24,901 -19,855 -16,519 -20,054 -21,790 -4,731 -9,289 -2,572 4,012 3,807 6,113 1,560 8,594 12,701
-20,382 -20,126 -15,481 -19,755 -25,539 -24,879 -6,590 -12,042 -8,232 5,931 4,672 5,240 7,105 12,979 15,524
-10,870 -9,381 -6,731 -17,711 -17,312 -19,388 -6,759 -12,902 -13,034 7,152 5,710 3,144 10,571 14,382 15,700
-14,437 -15,691 -18,341 -22,820 -27,767 -22,134 -9,969 -15,998 -15,435 5,059 4,153 1,572 9,358 12,102 12,348
-9,681 -9,039 -22,379 -13,454 -15,083 -10,809 -6,759 -10,321 -4,802 6,454 6,921 6,113 8,491 11,225 11,466
-20,551 -20,126 -30,456 -15,838 -15,083 -15,614 -6,252 -10,321 2,401 6,105 8,479 7,335 7,451 9,997 10,408
-29,553 -29,506 -38,196 -14,135 -22,968 -27,109 -7,266 -10,494 0,343 6,280 8,306 6,113 7,625 9,822 9,702
-21,401 -19,614 -23,389 -5,790 -13,541 -20,589 -4,900 -8,945 -2,401 7,675 9,344 4,541 9,877 12,278 11,466
-19,193 -19,784 -14,134 -15,327 -24,339 -13,212 -9,631 -14,622 -11,147 4,012 5,883 0,699 9,531 12,453 12,878
-7,303 -8,528 0,337 -15,157 -16,797 1,716 -14,362 -15,138 -12,862 -0,349 3,461 0,699 6,412 10,699 13,760
-9,002 -13,986 -1,346 -25,204 -21,254 -4,461 -22,980 -20,299 -15,949 -9,070 -2,249 -2,620 -1,386 4,736 10,055
-12,399 -18,591 -11,106 -32,698 -28,110 -11,839 -29,570 -22,019 -17,836 -15,176 -7,094 -4,890 -6,758 1,052 6,174
-13,248 -16,032 -13,293 -30,995 -18,169 -11,153 -28,725 -17,719 -12,005 -15,350 -5,883 -3,493 -6,758 2,456 7,056
-29,214 -28,653 -27,427 -37,296 -29,481 -20,246 -30,077 -17,719 -10,118 -15,524 -5,364 -3,842 -5,892 4,560 8,644
-25,477 -18,249 -22,884 -27,759 -17,997 -13,383 -23,825 -9,633 -6,002 -10,640 -0,692 -0,524 -2,599 8,770 12,525
-26,836 -16,714 -22,043 -27,589 -15,426 -17,501 -18,080 -7,569 -5,831 -9,070 0,865 -1,921 -2,946 7,542 12,878
-26,496 -15,179 -24,567 -23,501 -17,654 -19,388 -12,504 -5,333 -5,831 -7,152 -0,519 -2,445 -3,119 4,911 8,820
-19,023 -11,768 -18,004 -10,729 -5,999 -19,217 -5,069 -0,688 -2,058 -2,616 1,730 0,699 0,347 6,139 7,938
-24,118 -24,901 -28,437 -10,899 -16,969 -28,654 -5,407 -3,096 -4,630 -0,523 2,076 0,873 4,852 8,594 8,291
-13,248 -16,714 -22,716 0,341 -7,542 -15,270 -3,041 0,688 -2,744 3,489 5,018 3,318 10,571 12,628 10,937
-12,399 -17,738 -15,649 -3,576 -8,227 -7,721 -5,238 -1,548 -1,715 2,093 3,980 0,699 9,184 10,699 9,702
-14,777 -18,249 -16,490 -11,580 -15,598 -5,662 -10,476 -4,989 -7,889 -1,395 -0,519 -3,842 3,986 6,139 6,174
-14,777 -13,815 -16,995 -17,711 -10,284 -7,721 -11,152 -5,677 -10,633 -3,140 -3,115 -6,812 -1,560 0,526 2,470
-28,704 -27,118 -35,168 -38,147 -28,967 -29,168 -15,545 -13,934 -17,493 -8,373 -9,344 -13,798 -8,838 -7,542 -4,763
-27,345 -24,901 -40,552 -37,466 -28,624 -35,860 -15,545 -15,138 -21,951 -9,245 -11,939 -15,894 -11,784 -11,225 -8,820
-32,780 -33,599 -45,095 -36,444 -34,795 -41,522 -15,883 -17,891 -23,666 -8,373 -12,112 -15,195 -8,838 -9,647 -8,997
-36,007 -39,398 -48,461 -30,995 -40,279 -36,031 -16,559 -17,719 -21,780 -4,884 -9,690 -10,130 -1,040 -2,631 -4,057
-32,610 -36,669 -40,552 -20,606 -28,796 -27,453 -14,024 -15,138 -15,435 -1,221 -5,018 -4,541 5,545 4,034 3,175
-39,404 -46,391 -42,740 -26,567 -38,223 -40,492 -15,883 -18,235 -16,464 -2,616 -5,537 -5,240 6,412 5,262 6,174
-37,536 -42,127 -38,196 -27,078 -31,538 -44,610 -15,376 -16,858 -17,836 -3,838 -6,056 -5,938 5,199 4,385 6,351
-45,349 -49,632 -46,105 -35,082 -35,994 -44,782 -18,418 -19,611 -21,780 -7,501 -8,479 -8,907 3,119 3,332 5,292
-47,897 -51,678 -55,696 -37,807 -41,822 -35,860 -21,459 -19,955 -23,152 -8,722 -9,690 -9,431 3,812 5,262 6,880
-41,952 -44,856 -54,013 -32,868 -31,024 -23,335 -18,587 -15,998 -17,664 -6,628 -7,440 -6,986 5,545 8,594 10,408
-47,047 -52,872 -64,783 -35,082 -39,251 -24,193 -17,573 -15,826 -15,092 -5,407 -7,094 -6,288 6,065 10,173 12,525
-38,215 -41,445 -61,585 -18,733 -25,196 -17,329 -9,800 -8,085 -8,918 0,872 -3,115 -2,445 11,264 14,207 15,700
-36,517 -40,251 -58,052 -15,838 -20,740 -24,707 -5,745 -5,677 -5,488 4,535 0,346 0,699 16,636 18,066 18,876
-32,610 -36,669 -48,292 -18,903 -21,425 -27,281 -4,731 -4,129 -2,915 6,977 2,942 3,318 21,314 21,749 22,051
-26,156 -27,630 -28,100 -21,628 -11,313 -18,016 -5,069 -2,924 -0,686 7,849 4,845 3,318 24,434 23,152 23,109
-32,610 -34,793 -24,062 -34,060 -24,510 -15,785 -13,518 -8,085 -4,459 4,361 2,076 0,000 24,434 21,924 21,698
-29,723 -28,142 -16,490 -28,099 -17,997 -8,064 -15,883 -5,849 -6,860 5,233 1,557 0,000 25,127 21,573 21,345
-36,857 -32,917 -21,202 -25,715 -18,340 -13,212 -13,518 -4,645 -8,575 8,024 2,249 -0,175 26,513 20,872 19,581
-38,215 -32,235 -29,951 -17,711 -17,826 -14,756 -6,928 0,860 -6,345 12,734 4,672 1,921 29,806 21,749 18,523
-28,534 -18,761 -24,735 -3,576 1,543 -3,088 3,886 10,666 2,572 17,967 9,863 6,637 30,326 20,697 18,346
-26,156 -19,102 -26,923 -6,642 -0,171 0,343 8,279 12,558 5,145 18,839 10,901 6,812 27,726 15,785 13,407
-12,229 -9,039 -24,062 -0,341 11,141 10,466 12,335 14,966 7,546 20,409 12,112 5,589 26,167 11,751 7,056
-10,530 -13,815 -26,754 -0,511 6,342 6,520 7,942 9,633 5,831 17,269 9,517 1,747 20,968 4,911 -1,235
-9,681 -16,203 -24,735 0,511 -2,400 -0,686 3,041 5,161 2,401 14,129 6,229 -0,349 14,903 -0,877 -7,585
-7,983 -12,621 -13,461 0,511 2,057 -6,520 2,535 2,752 -1,029 12,385 5,191 -0,524 11,437 -2,982 -9,526
-16,815 -22,002 -14,303 -12,432 -14,569 -19,560 -2,535 -5,161 -8,060 8,896 1,903 -4,192 9,358 -3,508 -9,879
-11,210 -13,133 -6,394 -11,580 -10,284 -13,383 -5,576 -6,193 -9,947 6,803 0,000 -6,462 8,145 -2,806 -8,644
-18,343 -15,009 -9,423 -19,925 -13,198 -12,697 -9,293 -9,977 -10,976 1,570 -3,980 -9,955 3,986 -4,911 -8,820
-29,044 -18,249 -22,548 -23,672 -19,883 -14,584 -12,335 -12,214 -10,290 -2,093 -7,959 -10,829 1,733 -6,139 -9,526
-30,402 -16,714 -27,596 -15,838 -12,170 -12,010 -11,321 -11,698 -6,688 -2,965 -8,479 -10,305 1,040 -6,139 -9,173
-36,347 -31,382 -40,047 -18,903 -24,682 -19,217 -13,180 -16,858 -12,005 -5,233 -10,728 -13,274 -1,213 -6,665 -9,350
-26,156 -24,389 -37,019 -14,646 -16,112 -14,069 -9,631 -13,590 -12,348 -3,663 -8,825 -10,305 -1,560 -4,034 -5,821
-24,458 -25,924 -34,831 -27,589 -17,312 -19,217 -8,786 -13,762 -13,720 -4,186 -6,748 -8,733 -3,119 -2,456 -1,588
-21,570 -26,777 -33,485 -33,719 -24,168 -19,560 -11,321 -14,106 -16,978 -4,361 -5,537 -7,859 -3,119 -1,052 1,058
-16,305 -20,637 -25,576 -25,375 -16,112 -12,697 -11,321 -10,666 -14,749 -2,442 -1,903 -4,366 -1,040 1,052 3,705
-25,137 -27,459 -28,437 -24,523 -27,082 -20,246 -14,700 -10,666 -12,519 -3,140 -1,038 -1,747 0,866 2,280 4,234
-16,985 -14,156 -14,303 -8,515 -14,226 -11,496 -10,814 -3,096 -2,915 -0,174 2,249 3,493 4,159 4,911 6,880
-17,494 -13,986 -8,077 -6,471 -10,456 -3,603 -7,097 -1,548 1,715 1,047 2,942 2,794 5,545 6,314 8,291
-18,174 -15,521 -15,144 -7,323 -11,655 4,118 -4,731 -0,516 1,543 4,012 2,422 1,747 9,531 9,296 9,526
-18,004 -14,838 -20,528 -5,790 1,200 5,662 0,676 2,924 2,401 9,070 6,056 2,620 14,210 12,979 12,878
-30,742 -27,801 -33,317 -16,008 -9,941 -9,437 0,169 -0,172 -3,430 9,070 5,883 0,873 14,036 11,751 12,878
-22,929 -14,497 -21,875 -8,345 -2,057 -5,834 1,183 1,376 -1,029 7,326 5,364 1,223 10,224 6,314 8,115
-12,399 -5,628 -9,928 -5,790 -3,599 -1,373 -2,028 -1,720 -1,029 1,919 1,211 -1,921 1,560 -2,631 0,882
12,738 10,916 4,711 -1,873 -6,170 8,922 -5,745 -3,440 -4,116 -3,663 -4,153 -6,637 -7,451 -10,874 -7,056
41,442 35,476 27,259 7,493 7,542 17,158 -6,252 -1,892 -3,944 -6,628 -7,267 -9,082 -12,130 -14,733 -11,819
48,236 42,809 35,336 7,663 2,228 13,555 -9,124 -2,580 -3,258 -7,326 -8,998 -8,907 -11,090 -13,505 -13,054
60,805 61,229 53,845 19,074 17,654 25,050 -3,379 4,817 2,058 -0,174 -3,115 -3,144 -4,332 -6,665 -7,233
61,484 62,764 66,297 16,519 21,597 24,021 3,379 7,913 3,087 6,105 2,422 -0,873 1,040 -2,456 -4,057
64,202 67,028 73,869 22,820 21,597 24,536 8,955 10,494 3,944 10,466 6,056 -1,223 4,506 -0,877 -4,587
74,053 80,673 88,508 36,785 35,480 34,830 13,518 12,386 6,002 11,164 7,267 -2,794 3,986 -2,280 -6,880
73,034 76,409 86,152 34,571 27,253 37,404 12,335 9,977 5,145 9,943 5,018 -4,366 3,466 -3,332 -10,055
86,452 85,107 89,854 44,619 38,737 47,699 17,742 16,342 11,662 15,350 10,036 2,096 9,531 2,456 -5,821
84,583 78,797 82,955 42,745 37,708 36,203 19,262 17,374 14,406 17,443 14,362 6,812 13,517 7,016 -0,706
76,940 73,850 69,662 34,741 31,024 26,251 18,080 17,891 13,891 19,013 17,130 9,781 15,423 9,647 3,705
74,562 76,750 68,316 30,313 38,565 30,713 19,600 19,095 15,606 19,536 19,380 11,527 14,036 9,121 6,527
62,503 64,470 58,052 16,349 22,282 26,080 12,673 11,182 10,461 14,478 15,054 8,209 9,358 5,437 4,234
62,673 66,517 57,042 18,392 23,311 30,369 7,942 8,601 9,432 12,210 12,285 8,034 8,145 5,262 3,881
53,332 55,089 48,965 15,838 16,283 26,080 2,704 2,408 8,232 7,675 8,133 5,938 6,932 4,736 4,410
48,916 48,949 45,937 19,925 10,113 23,678 0,169 0,688 8,060 5,233 3,807 5,240 6,585 4,034 4,587
51,973 53,554 53,845 29,802 23,482 25,050 4,055 4,129 11,490 5,582 3,634 5,065 7,105 3,508 5,116
42,122 44,344 44,927 24,012 15,255 16,643 2,535 2,408 7,203 2,965 0,519 -0,699 5,545 1,403 2,646
46,538 52,531 47,788 30,484 26,396 22,992 4,731 7,397 7,546 4,012 1,557 -1,747 6,585 2,982 3,352
42,971 47,073 45,600 21,458 22,968 19,217 1,859 4,989 3,773 1,395 1,557 -4,192 5,372 3,157 4,763
43,990 42,809 42,403 7,834 11,998 15,957 -4,393 1,376 -2,915 -1,744 -0,519 -5,065 3,466 2,982 4,587
49,425 44,685 47,956 3,065 15,426 18,530 -6,083 -0,344 -3,087 -2,791 -0,346 -4,017 2,946 3,859 4,410
37,876 30,871 38,870 -8,004 -1,543 10,809 -9,631 -6,709 -5,831 -3,314 -2,422 -5,065 4,852 5,613 3,705
34,818 34,452 37,355 -0,851 3,771 13,726 -7,435 -5,505 -2,401 1,570 0,000 -3,318 13,343 11,927 7,233
22,420 26,948 28,437 1,022 0,343 8,579 -6,759 -7,913 -2,058 4,535 1,211 -3,842 20,448 16,838 10,055
18,343 23,707 19,687 4,939 -4,799 10,295 -6,759 -7,913 -1,372 7,326 3,115 -1,048 25,820 22,450 13,760
22,590 27,971 22,716 11,751 6,685 17,844 -3,717 -5,161 0,857 8,722 6,229 0,349 25,820 24,555 18,346
15,116 17,226 13,461 2,214 -3,428 12,010 -4,900 -8,085 -3,601 4,710 3,461 -3,493 17,675 18,241 16,229
23,269 26,436 20,024 6,301 6,685 15,785 -2,872 -5,161 -5,145 2,268 1,211 -4,890 10,397 12,102 13,054
25,307 25,583 23,221 5,620 6,856 8,579 -3,210 -5,677 -8,060 0,349 -1,211 -7,685 7,105 7,893 9,526
28,025 27,118 22,548 9,707 4,114 4,289 -1,859 -2,752 -7,203 2,616 -0,865 -6,462 10,224 8,594 9,350
33,969 34,793 32,307 17,200 16,112 4,289 3,210 2,580 1,029 6,454 3,807 -1,572 15,423 11,751 13,054
27,175 24,048 28,942 5,960 3,771 -6,005 1,521 -0,516 -0,514 5,931 3,807 -1,223 17,329 12,102 15,347
33,969 30,871 33,822 6,301 12,170 7,206 3,717 2,236 -0,514 7,849 5,191 0,175 18,369 12,102 16,935
29,723 26,777 30,288 3,236 11,313 13,555 3,886 1,204 -2,744 7,675 4,326 -1,921 16,116 9,471 15,347
27,345 26,266 27,091 5,450 7,542 19,903 3,886 1,204 -4,459 6,977 2,769 -4,890 11,610 5,437 11,643
33,290 34,964 34,663 17,371 18,683 30,026 6,252 3,440 -2,915 5,931 1,903 -6,637 5,545 -0,175 6,880
30,572 29,165 28,269 17,030 8,399 25,222 3,041 1,376 -2,229 1,744 -1,211 -7,685 -2,773 -6,314 1,235
39,914 39,569 29,783 27,078 18,340 29,683 4,900 7,053 3,087 1,395 -0,173 -5,414 -9,011 -10,348 -2,293
35,498 35,987 25,408 25,204 17,826 22,820 6,590 8,945 4,630 -0,349 -0,346 -6,812 -16,636 -16,662 -8,291
33,460 35,476 25,240 25,034 15,940 16,472 8,955 14,106 6,688 1,395 0,865 -5,938 -18,715 -18,592 -12,701
40,254 43,321 36,177 31,335 30,167 14,069 14,531 22,019 12,348 6,280 6,921 -0,873 -13,863 -14,382 -10,761
34,649 35,817 37,019 26,567 30,167 13,898 11,997 13,074 8,746 -0,698 2,942 5,065 -8,664 -4,736 -1,764
38,895 30,359 32,644 20,947 24,339 11,324 13,011 9,977 10,976 0,000 5,191 8,733 -7,971 -2,631 1,235
46,538 35,134 25,913 24,523 22,968 20,075 13,855 11,182 11,147 2,965 7,267 12,226 -5,719 0,000 4,763
43,481 32,064 17,500 23,672 20,568 17,158 14,024 9,289 10,633 4,884 8,998 12,750 -2,253 2,631 7,056
38,555 28,653 13,630 24,183 13,541 10,809 13,349 8,085 8,060 7,675 9,863 12,924 3,639 6,840 9,173
38,385 33,599 24,399 31,335 22,282 14,069 16,559 11,698 9,261 12,734 12,804 14,496 11,264 12,453 14,113
20,551 19,955 26,081 24,183 18,511 8,236 17,742 11,354 9,432 14,129 13,496 13,448 13,517 13,155 15,171
9,681 15,521 24,230 26,737 21,597 10,295 21,290 17,719 14,577 17,269 16,438 17,989 13,863 13,681 16,406
6,284 10,916 16,827 25,375 23,653 5,834 22,304 17,547 16,292 14,652 16,784 16,592 8,664 9,647 15,347
17,494 15,009 10,433 24,183 17,483 4,118 17,911 13,074 11,147 8,722 10,728 10,305 1,733 3,332 8,468
37,196 29,165 15,481 28,781 23,996 15,614 16,052 13,246 8,403 6,280 7,440 7,510 -2,079 -0,351 3,175
39,574 25,413 14,639 17,030 18,169 13,898 13,518 9,977 4,287 3,838 4,499 4,716 -4,332 -2,806 -0,529
47,047 33,599 22,379 21,287 21,939 19,388 14,700 11,698 3,087 5,059 3,461 4,366 -2,773 -2,280 -1,235
38,215 28,142 28,774 24,353 24,168 16,472 14,193 8,257 2,229 2,965 1,730 1,397 -2,946 -3,157 -1,588
15,626 11,427 17,163 22,139 12,341 7,549 7,435 2,064 -1,715 -2,965 -3,288 -3,318 -6,065 -5,613 -2,999
7,134 9,039 8,077 25,034 12,684 5,834 2,872 -0,688 -3,258 -8,024 -6,921 -6,113 -9,531 -8,770 -4,939
-1,189 -3,070 -5,385 11,751 2,400 -10,809 -3,717 -8,773 -10,290 -14,827 -12,804 -11,876 -14,383 -13,505 -10,937
6,454 0,682 -11,442 11,410 1,371 -14,413 -6,083 -9,633 -12,348 -16,222 -14,881 -11,702 -16,289 -15,259 -15,171
4,416 -2,899 -17,163 5,109 0,171 -19,560 -6,928 -12,386 -11,490 -16,571 -14,189 -9,431 -16,982 -15,785 -16,406
-9,851 -17,397 -31,802 -6,301 -12,170 -26,938 -9,969 -16,858 -16,807 -17,967 -14,708 -9,781 -18,022 -16,838 -17,111
-17,834 -21,149 -37,523 -2,214 -11,313 -24,193 -10,476 -18,235 -18,693 -18,664 -15,400 -9,955 -19,235 -18,066 -17,993
-30,572 -32,747 -46,610 -4,598 -20,568 -34,830 -14,193 -27,008 -24,352 -23,723 -20,418 -15,544 -23,394 -21,573 -20,110
-28,364 -30,188 -48,797 -2,214 -22,796 -35,688 -18,249 -30,964 -30,355 -26,514 -26,301 -20,784 -25,647 -23,503 -22,933
-28,364 -33,770 -46,442 -8,856 -23,825 -37,919 -20,276 -32,857 -32,241 -26,514 -29,415 -23,404 -23,741 -23,327 -24,697
-30,572 -38,375 -46,778 -14,816 -29,824 -41,007 -18,756 -29,416 -28,468 -22,676 -28,031 -20,959 -18,715 -20,170 -23,286
-28,364 -35,305 -42,908 -11,921 -21,254 -35,688 -11,490 -20,471 -18,007 -16,920 -21,975 -14,496 -15,249 -16,487 -19,405
-38,046 -46,050 -51,153 -18,563 -26,910 -40,492 -9,124 -20,643 -14,920 -17,443 -19,553 -13,623 -17,502 -16,662 -17,993
-36,857 -39,228 -51,658 -15,327 -23,482 -32,600 -6,083 -16,514 -13,548 -15,001 -16,957 -12,226 -17,156 -14,733 -16,582
-42,631 -41,786 -50,648 -18,733 -19,883 -30,884 -4,900 -16,858 -14,234 -14,303 -15,573 -13,972 -16,116 -13,505 -15,171
-47,047 -49,120 -59,903 -21,117 -25,539 -30,713 -6,928 -18,235 -17,836 -14,129 -16,784 -16,243 -15,076 -13,505 -15,700
-45,009 -47,755 -68,989 -12,772 -18,169 -22,648 -5,576 -14,622 -15,263 -11,861 -16,438 -15,719 -12,130 -12,628 -16,406
-54,690 -58,842 -79,758 -12,091 -23,139 -37,061 -5,745 -15,826 -15,778 -12,210 -17,995 -18,513 -9,531 -12,278 -17,817
-50,784 -54,578 -73,869 0,851 -21,082 -45,811 -3,548 -11,698 -16,635 -10,815 -18,514 -18,339 -6,932 -11,050 -18,346
-49,935 -58,330 -61,585 3,917 -16,797 -45,983 -1,859 -10,494 -14,749 -11,687 -18,168 -17,815 -7,451 -11,225 -18,170
-50,105 -61,059 -57,884 -3,576 -21,939 -42,380 -3,379 -11,870 -13,891 -13,431 -19,034 -17,116 -10,224 -11,576 -17,993
-41,782 -51,508 -50,985 -11,240 -16,969 -34,659 -4,224 -12,730 -15,435 -13,431 -18,168 -16,941 -10,744 -9,822 -16,229
-49,425 -59,012 -56,874 -31,846 -27,939 -38,262 -10,645 -21,331 -24,524 -16,746 -20,072 -21,482 -10,917 -9,822 -17,111
-51,463 -55,430 -61,585 -35,252 -31,709 -31,914 -15,545 -23,395 -28,811 -17,618 -21,110 -21,133 -11,957 -10,524 -18,170
-57,578 -57,648 -64,614 -33,719 -30,510 -32,428 -18,080 -25,116 -29,154 -19,536 -20,764 -19,736 -15,596 -12,804 -18,523
-61,314 -60,888 -70,672 -28,951 -34,109 -37,919 -20,445 -25,632 -30,526 -21,106 -20,764 -17,815 -19,062 -14,909 -19,581
-55,200 -55,772 -67,643 -14,816 -24,339 -38,948 -19,262 -22,535 -26,925 -20,060 -18,341 -14,671 -20,795 -16,487 -19,934
-59,786 -65,834 -71,850 -14,135 -29,138 -49,071 -19,938 -24,772 -26,239 -20,409 -17,476 -14,147 -21,661 -18,592 -21,169
-54,521 -62,082 -76,056 -7,834 -29,310 -41,865 -18,080 -21,503 -21,780 -17,443 -15,227 -10,130 -20,275 -18,241 -20,816
-55,540 -63,788 -79,590 -10,899 -28,453 -39,635 -15,883 -20,987 -18,522 -16,746 -12,631 -9,606 -19,755 -18,241 -20,287
-62,334 -68,563 -82,114 -20,436 -37,708 -49,071 -17,573 -24,255 -22,980 -19,711 -15,227 -14,671 -22,008 -20,521 -23,286
-61,145 -63,276 -72,523 -26,396 -32,909 -49,758 -16,559 -22,707 -23,152 -19,013 -16,265 -16,592 -20,101 -18,416 -23,991
-64,202 -68,734 -67,980 -39,339 -37,194 -51,817 -17,235 -24,083 -23,323 -17,618 -15,919 -17,640 -15,076 -13,155 -20,463
-54,181 -59,865 -62,427 -37,466 -33,423 -44,439 -16,390 -21,159 -19,551 -15,176 -14,016 -15,894 -10,051 -8,419 -16,406
-55,030 -62,082 -63,100 -39,339 -31,538 -47,527 -17,404 -23,567 -19,551 -15,699 -14,708 -17,815 -8,145 -7,542 -15,347
-58,427 -64,129 -71,345 -36,104 -38,051 -51,817 -19,262 -25,460 -24,181 -15,001 -16,784 -18,164 -5,372 -6,314 -15,347
-49,255 -52,019 -65,960 -15,327 -26,567 -42,208 -13,011 -19,095 -21,608 -9,594 -13,496 -13,623 -0,347 -3,157 -11,819
-54,351 -56,283 -63,100 -7,834 -26,053 -37,404 -7,773 -16,342 -19,379 -7,675 -11,247 -11,527 0,693 -2,982 -10,232
-50,105 -49,973 -57,042 1,022 -19,368 -25,394 -1,859 -9,289 -13,034 -4,361 -8,306 -7,685 2,253 -1,228 -7,409
-51,973 -52,019 -56,874 -0,681 -13,884 -25,737 1,183 -9,117 -10,633 -4,535 -8,133 -9,955 1,560 -1,929 -6,527
-57,748 -58,159 -66,465 -8,685 -19,883 -24,879 -0,507 -12,214 -15,263 -5,407 -10,728 -13,274 1,906 -2,280 -7,409
-55,879 -55,260 -67,138 -13,624 -15,083 -17,329 -1,521 -12,558 -16,807 -4,535 -10,901 -14,147 2,946 -1,929 -6,880
-58,767 -61,229 -71,681 -23,501 -21,768 -24,021 -4,224 -14,278 -18,007 -3,663 -10,901 -12,575 4,506 -0,526 -5,645
-45,519 -48,267 -64,614 -18,222 -14,741 -19,045 1,859 -6,365 -13,034 4,186 -2,942 -2,620 11,610 7,016 2,823
-43,650 -47,926 -57,547 -21,287 -12,341 -24,536 2,535 -6,537 -12,691 4,361 0,000 0,699 10,397 6,840 6,174
-49,595 -55,089 -57,884 -26,056 -21,939 -36,031 -2,704 -10,321 -15,263 1,570 -1,557 0,349 6,758 4,385 4,763
-49,935 -54,237 -53,172 -22,650 -21,425 -38,948 -8,955 -14,794 -17,664 -3,489 -5,364 -2,794 1,906 -0,351 0,706
-57,918 -64,982 -57,379 -31,335 -33,595 -50,616 -19,094 -27,352 -24,695 -13,082 -14,189 -11,353 -5,892 -8,419 -7,056
-54,351 -60,888 -60,744 -32,357 -40,108 -52,331 -27,542 -34,233 -31,898 -19,188 -23,013 -18,339 -11,957 -15,084 -15,524
-48,576 -55,430 -58,725 -35,252 -41,136 -50,787 -29,570 -36,641 -32,584 -20,060 -25,782 -19,911 -11,957 -15,610 -18,523
-42,292 -49,461 -55,528 -36,104 -46,450 -48,728 -28,387 -35,953 -31,041 -18,664 -24,571 -19,037 -10,224 -13,856 -17,111
-37,196 -42,298 -47,788 -28,440 -38,051 -40,149 -23,487 -30,104 -27,611 -16,222 -20,591 -16,068 -9,358 -11,927 -13,407
-53,332 -59,694 -58,052 -35,933 -44,907 -46,155 -25,345 -32,685 -31,727 -20,409 -20,937 -19,212 -13,517 -15,259 -13,760
-58,087 -62,594 -61,922 -33,038 -45,079 -42,551 -28,049 -31,136 -35,328 -21,804 -22,148 -20,784 -15,596 -17,539 -17,288
-56,389 -63,105 -55,528 -32,187 -40,279 -41,522 -28,218 -30,448 -34,814 -21,978 -21,629 -22,006 -15,249 -17,890 -20,110
-44,839 -56,113 -49,807 -27,759 -40,794 -38,777 -26,359 -27,352 -33,099 -18,141 -19,726 -19,561 -12,130 -14,909 -19,228
-15,796 -27,118 -29,447 -8,685 -22,454 -24,021 -15,207 -17,547 -24,352 -8,198 -12,112 -12,226 -6,238 -9,647 -13,760
-2,378 -13,815 -10,433 -4,939 -18,854 -24,707 -9,800 -19,955 -21,951 -6,803 -9,863 -12,400 -4,506 -8,594 -10,937
21,401 12,451 11,106 4,257 -15,255 -18,187 -13,349 -25,460 -26,067 -13,257 -16,611 -19,037 -10,744 -15,259 -16,229
57,748 47,414 49,302 19,584 -0,514 -0,858 -11,659 -23,223 -23,152 -13,431 -17,995 -17,640 -9,704 -13,856 -17,288
93,415 81,355 89,854 29,121 7,542 13,383 -12,842 -26,148 -20,923 -19,013 -19,380 -18,339 -12,303 -14,558 -14,995
137,066 125,188 138,315 44,789 24,510 33,458 -16,052 -28,384 -20,751 -24,072 -24,224 -19,561 -14,730 -14,558 -15,700
167,978 152,135 178,194 50,749 31,881 40,492 -18,756 -32,341 -19,208 -27,560 -26,647 -19,037 -14,730 -11,050 -9,702
193,285 178,571 207,136 63,011 42,165 47,870 -19,431 -32,685 -16,978 -28,258 -27,858 -18,863 -15,943 -11,401 -6,527
192,945 178,913 213,193 61,308 44,565 42,551 -21,628 -40,082 -20,751 -30,875 -31,838 -23,928 -17,156 -14,733 -9,350
179,188 166,121 199,564 52,282 31,881 35,688 -27,373 -47,135 -26,925 -30,700 -36,337 -26,897 -12,997 -14,207 -13,231
177,659 168,509 196,367 57,391 38,565 44,954 -21,459 -38,361 -22,809 -17,269 -27,858 -17,291 2,773 -1,228 -6,527
159,995 151,965 182,064 47,684 34,795 40,664 -13,011 -33,029 -17,493 -6,454 -14,881 -9,257 14,903 10,173 5,116
139,614 134,227 156,151 39,510 27,424 37,576 -10,307 -28,728 -19,036 0,174 -8,306 -5,414 21,834 18,066 11,819
111,759 107,109 130,406 26,226 20,397 27,109 -6,421 -24,427 -20,923 6,280 -1,730 -1,921 28,593 25,958 20,640
84,583 84,254 108,364 18,392 8,399 12,697 -4,731 -22,191 -21,266 6,803 1,038 -1,223 28,073 27,011 25,403
69,977 73,168 95,070 20,777 8,399 1,887 -5,238 -20,299 -21,437 2,616 -1,730 -5,065 21,661 21,398 21,698
51,124 50,314 71,681 18,222 -0,686 -13,555 -5,407 -19,267 -21,266 1,570 -4,326 -6,637 19,408 17,890 16,406
42,971 40,251 53,677 30,654 3,771 -11,496 1,690 -8,085 -13,720 8,373 -0,173 -0,349 23,914 19,995 16,053
32,780 25,242 44,254 34,060 12,170 -9,608 9,969 -0,516 -7,889 12,036 4,153 1,921 24,260 18,767 15,171
23,439 9,892 29,110 22,309 5,999 -10,638 10,983 2,236 -8,060 12,036 3,807 1,223 20,275 14,382 11,290
22,759 11,598 23,221 10,388 9,256 -4,461 13,518 7,741 -7,374 15,524 6,229 2,096 20,621 13,681 8,997
12,229 6,140 15,144 -9,707 -0,343 -6,005 11,490 6,881 -9,775 16,048 7,267 1,921 22,874 15,084 8,644
17,664 18,932 17,163 -8,174 -0,857 2,917 11,321 11,182 -8,403 19,711 10,555 7,161 28,419 21,398 13,760
19,532 23,707 17,668 -4,598 1,028 1,716 11,997 12,386 -4,802 22,502 15,227 12,400 33,965 28,765 23,109
11,380 13,474 4,543 -2,554 -8,056 -9,094 10,138 10,321 -4,973 21,630 15,746 12,226 35,524 31,746 28,401
4,416 1,876 -6,058 5,960 -4,285 -15,270 11,828 11,182 -5,488 20,757 15,054 8,907 33,271 29,992 26,990
-14,267 -23,366 -20,697 0,511 -10,456 -28,825 12,166 8,257 -10,118 17,443 11,766 3,493 27,380 24,380 20,816
-20,551 -28,312 -27,764 2,044 -9,256 -26,766 12,504 10,321 -9,775 16,048 9,690 2,620 22,354 19,820 14,818
-27,006 -32,917 -30,120 -0,851 -6,685 -28,997 11,828 10,149 -6,688 14,478 9,344 4,017 20,275 17,715 12,348
-34,139 -39,057 -37,692 -3,747 -13,712 -34,487 8,955 7,569 -7,203 11,687 6,921 4,192 17,849 15,785 10,584
-34,479 -39,569 -38,870 1,362 -6,856 -27,796 9,800 9,117 -4,630 10,466 6,056 6,462 15,249 13,505 9,173
-48,576 -54,578 -45,768 -9,366 -12,684 -30,541 6,083 3,957 -3,773 4,535 2,942 3,318 9,358 7,717 4,587
-49,765 -51,337 -48,965 -11,069 -13,198 -25,565 2,197 3,613 -5,488 1,221 -0,519 0,175 4,332 2,806 -1,588
-53,671 -52,702 -53,172 -14,305 -10,627 -25,565 1,183 2,924 -8,575 -0,523 -1,730 -2,620 1,560 -0,351 -5,645
-57,748 -55,942 -62,595 -15,157 -16,455 -27,109 -0,338 2,408 -11,833 -0,872 -2,595 -4,366 0,520 -1,929 -7,585
-49,935 -46,220 -57,379 -5,790 -8,399 -21,447 2,197 6,881 -7,889 1,919 -0,173 -1,048 1,213 -1,579 -7,056
-52,652 -52,190 -55,191 -7,493 -13,027 -28,482 2,704 6,021 -5,316 2,442 1,211 0,873 0,000 -2,456 -6,527
-42,971 -43,321 -47,956 0,851 -10,456 -23,849 6,928 11,010 -1,715 6,977 4,153 5,414 2,599 0,526 -3,881
-36,517 -38,716 -39,879 0,341 -5,142 -23,849 14,193 15,138 2,401 13,082 10,036 10,654 8,838 6,490 1,940
-36,347 -40,763 -44,254 -5,960 -8,741 -27,281 18,925 17,891 6,517 19,013 15,919 16,592 16,116 13,330 8,820
-36,687 -40,422 -46,442 -6,812 -1,543 -26,080 20,445 19,267 8,575 21,978 19,726 19,561 20,968 18,066 14,289
-48,576 -54,748 -55,528 -16,689 -8,913 -36,546 16,052 13,418 2,572 20,060 17,995 16,592 23,741 21,047 17,111
-44,670 -50,484 -53,004 -13,794 -8,570 -32,771 13,687 14,622 1,886 21,281 17,476 16,767 28,419 25,958 21,169
-46,368 -50,825 -45,095 -14,816 -5,828 -25,394 12,504 14,106 4,973 20,409 17,822 15,544 28,419 26,134 22,933
-48,746 -49,973 -44,254 -16,008 -12,170 -18,874 9,462 12,042 2,915 18,141 15,054 11,702 25,820 23,854 19,581
-39,065 -35,987 -38,365 -6,471 -3,942 -13,383 12,335 15,998 5,316 21,455 16,957 14,322 29,286 27,011 20,992
-43,990 -41,957 -45,264 -8,856 -8,399 -22,820 14,024 13,762 4,630 22,676 19,034 14,846 30,672 27,888 22,756
-43,311 -39,228 -49,975 -2,725 -8,056 -19,560 16,052 15,138 3,258 24,944 19,726 15,544 29,286 25,958 21,345
-51,633 -44,344 -50,480 -2,554 -6,170 -19,388 17,742 13,590 1,372 23,897 19,726 14,147 24,087 20,872 18,523
-64,032 -52,531 -53,172 -6,471 -14,226 -23,335 14,700 11,182 -2,058 19,536 16,438 12,226 15,769 13,505 12,348
-56,389 -45,368 -46,778 -2,725 -6,856 -19,732 14,193 14,278 0,686 17,792 15,746 13,623 10,571 9,121 8,468
-49,086 -47,755 -48,292 -9,366 -9,256 -23,849 12,842 13,246 2,744 15,001 14,362 12,750 7,625 6,840 5,998
-30,233 -35,817 -43,918 -8,515 -6,856 -19,388 13,349 16,170 5,659 14,827 13,670 15,370 7,278 6,490 5,821
-21,231 -32,235 -34,158 -11,921 -4,456 -24,021 14,024 15,310 8,746 13,606 12,631 15,894 6,585 5,086 5,116
-23,948 -35,817 -31,802 -14,135 -11,141 -32,600 12,673 11,870 6,688 10,989 8,825 10,829 3,466 1,403 0,882
